#%Name: Almandine
#%Empirical formula: Fe2+3Al2Si3O12
#%Mineral group: silicate
#%Xtal system: cubic
#%Edge: K
#%Sample prep: 
#%Beamline: ALS 10.3.2, HxV slits = 100x20 um
#%Det:  I0=N2, Fluorescence mode (Ge solid state 7elts)
#%Ref/notes: from Glenn A. Waychunas
#%Temp: Room temp (28 degC)
#%Time&date: 8:13 AM 2/19/2006. Matthew A. Marcus
#%============================================================
7.0104113E+3 2.4398553E-3
7.0154107E+3 2.3012794E-3
7.0204102E+3 2.5400396E-3
7.0254097E+3 2.5702135E-3
7.0304092E+3 2.0599064E-3
7.0354087E+3 3.3213406E-3
7.0404082E+3 2.8197230E-3
7.0454077E+3 3.3446350E-3
7.0504072E+3 3.0687305E-3
7.0554067E+3 3.8325332E-3
7.0604062E+3 3.9137862E-3
7.0654057E+3 4.5519749E-3
7.0704052E+3 4.7461768E-3
7.0754047E+3 5.7343792E-3
7.0804042E+3 5.8926343E-3
7.0854037E+3 7.0864661E-3
7.0904031E+3 9.0523364E-3
7.0954026E+3 1.0327790E-2
7.0959026E+3 1.0488106E-2
7.0964025E+3 1.1511017E-2
7.0969025E+3 1.1297942E-2
7.0974024E+3 1.1638837E-2
7.0979024E+3 1.2497662E-2
7.0984023E+3 1.1708784E-2
7.0989023E+3 1.2590030E-2
7.0994022E+3 1.2817193E-2
7.0999022E+3 1.3086020E-2
7.1004021E+3 1.4601201E-2
7.1009021E+3 1.4847459E-2
7.1014020E+3 1.4291852E-2
7.1019020E+3 1.5192611E-2
7.1024019E+3 1.5006589E-2
7.1029019E+3 1.6535376E-2
7.1034018E+3 1.7210677E-2
7.1039018E+3 1.6889796E-2
7.1044017E+3 1.7515856E-2
7.1049017E+3 1.7946744E-2
7.1054016E+3 1.8719528E-2
7.1059016E+3 1.9946882E-2
7.1064015E+3 2.0901572E-2
7.1069015E+3 2.1863708E-2
7.1074014E+3 2.2124073E-2
7.1079014E+3 2.3624653E-2
7.1084013E+3 2.6291188E-2
7.1089013E+3 2.6654701E-2
7.1094012E+3 3.0315722E-2
7.1099012E+3 3.3592244E-2
7.1104011E+3 4.1557325E-2
7.1109010E+3 5.0426327E-2
7.1114010E+3 5.3696020E-2
7.1119009E+3 5.1736275E-2
7.1124009E+3 4.9531015E-2
7.1129008E+3 5.3193143E-2
7.1134008E+3 5.4195323E-2
7.1139007E+3 5.4647283E-2
7.1144007E+3 5.7226152E-2
7.1149006E+3 6.1628410E-2
7.1154006E+3 6.7456837E-2
7.1159005E+3 7.7457622E-2
7.1164005E+3 9.2567626E-2
7.1169004E+3 1.1550890E-1
7.1174004E+3 1.4764157E-1
7.1179003E+3 1.9471018E-1
7.1184003E+3 2.6517343E-1
7.1189002E+3 3.6664412E-1
7.1194002E+3 4.9219367E-1
7.1199001E+3 6.2499024E-1
7.1204001E+3 7.7032518E-1
7.1209000E+3 9.0060142E-1
7.1214000E+3 1.0181134E+0
7.1218999E+3 1.1535729E+0
7.1223999E+3 1.3389211E+0
7.1228998E+3 1.5025850E+0
7.1233998E+3 1.6747595E+0
7.1238997E+3 1.8265724E+0
7.1243997E+3 1.9561398E+0
7.1248996E+3 2.0322777E+0
7.1253996E+3 2.0404329E+0
7.1258995E+3 2.0026709E+0
7.1263995E+3 1.9776840E+0
7.1268994E+3 1.9631875E+0
7.1273994E+3 1.9114991E+0
7.1278993E+3 1.8259880E+0
7.1283993E+3 1.6806621E+0
7.1288992E+3 1.5377312E+0
7.1293992E+3 1.3641380E+0
7.1298991E+3 1.2133454E+0
7.1303991E+3 1.1260814E+0
7.1308990E+3 1.0538858E+0
7.1313990E+3 1.0031839E+0
7.1318989E+3 9.7325649E-1
7.1323988E+3 9.3400987E-1
7.1328988E+3 9.0167693E-1
7.1333987E+3 8.7089791E-1
7.1338987E+3 8.4474339E-1
7.1343986E+3 8.1700756E-1
7.1348986E+3 7.8998503E-1
7.1353985E+3 7.8385011E-1
7.1358985E+3 7.8059398E-1
7.1363984E+3 7.8101826E-1
7.1368984E+3 7.8922630E-1
7.1373983E+3 8.0129727E-1
7.1378983E+3 8.1745848E-1
7.1383982E+3 8.3884119E-1
7.1388982E+3 8.4776608E-1
7.1393981E+3 8.5100253E-1
7.1398981E+3 8.6006094E-1
7.1403980E+3 8.5843688E-1
7.1413979E+3 8.5746096E-1
7.1423978E+3 8.5073417E-1
7.1433977E+3 8.4577954E-1
7.1443976E+3 8.4460602E-1
7.1453975E+3 8.4540377E-1
7.1463974E+3 8.5945784E-1
7.1473973E+3 8.6887845E-1
7.1483972E+3 8.7814909E-1
7.1493971E+3 8.8479715E-1
7.1503970E+3 9.0091579E-1
7.1513969E+3 9.2487520E-1
7.1523968E+3 9.5911338E-1
7.1533967E+3 1.0093269E+0
7.1543966E+3 1.0427951E+0
7.1553965E+3 1.0833477E+0
7.1563964E+3 1.1197212E+0
7.1573963E+3 1.1396522E+0
7.1583962E+3 1.1395347E+0
7.1593961E+3 1.1401498E+0
7.1603960E+3 1.1420040E+0
7.1613959E+3 1.1354807E+0
7.1623958E+3 1.1371501E+0
7.1633957E+3 1.1255418E+0
7.1643956E+3 1.1140800E+0
7.1653955E+3 1.1195781E+0
7.1663954E+3 1.1153563E+0
7.1673952E+3 1.1137700E+0
7.1683951E+3 1.1107340E+0
7.1693950E+3 1.1028239E+0
7.1703949E+3 1.0956425E+0
7.1713948E+3 1.0949993E+0
7.1723947E+3 1.0814254E+0
7.1733946E+3 1.0717128E+0
7.1743945E+3 1.0631624E+0
7.1753944E+3 1.0565582E+0
7.1763943E+3 1.0410459E+0
7.1773942E+3 1.0374404E+0
7.1783941E+3 1.0337670E+0
7.1793940E+3 1.0266347E+0
7.1803939E+3 1.0182662E+0
7.1813938E+3 1.0122903E+0
7.1823937E+3 1.0134792E+0
7.1833936E+3 1.0004196E+0
7.1843935E+3 1.0042925E+0
7.1853934E+3 9.9329233E-1
7.1863933E+3 9.9188598E-1
7.1873932E+3 9.8364375E-1
7.1883931E+3 9.8764719E-1
7.1893930E+3 9.8881722E-1
7.1903929E+3 9.7769655E-1
7.1913928E+3 9.8313367E-1
7.1923927E+3 9.8531173E-1
7.1933926E+3 9.7848290E-1
7.1943925E+3 9.7631921E-1
7.1953924E+3 9.7818673E-1
7.1963923E+3 9.8191665E-1
7.1973922E+3 9.7861275E-1
7.1983920E+3 9.7908196E-1
7.1993919E+3 9.7672543E-1
7.2003918E+3 9.7509707E-1
7.2013917E+3 9.8203077E-1
7.2023916E+3 9.7419664E-1
7.2033915E+3 9.7473382E-1
7.2043914E+3 9.8376552E-1
7.2053913E+3 9.9153634E-1
7.2063912E+3 9.9863651E-1
7.2073911E+3 1.0065396E+0
7.2083910E+3 1.0140088E+0
7.2093909E+3 1.0220141E+0
7.2103908E+3 1.0267640E+0
7.2123906E+3 1.0290047E+0
7.2143904E+3 1.0262665E+0
7.2163902E+3 1.0321258E+0
7.2183900E+3 1.0416086E+0
7.2203898E+3 1.0348629E+0
7.2223896E+3 1.0332748E+0
7.2243894E+3 1.0377489E+0
7.2263891E+3 1.0323652E+0
7.2283889E+3 1.0205469E+0
7.2303887E+3 1.0189994E+0
7.2323885E+3 1.0156689E+0
7.2343883E+3 1.0226426E+0
7.2363881E+3 1.0263227E+0
7.2383879E+3 1.0328878E+0
7.2403877E+3 1.0360210E+0
7.2423875E+3 1.0342680E+0
7.2443873E+3 1.0348583E+0
7.2463871E+3 1.0300672E+0
7.2483869E+3 1.0304957E+0
7.2503866E+3 1.0248571E+0
7.2523864E+3 1.0133343E+0
7.2543862E+3 1.0118520E+0
7.2548862E+3 1.0122985E+0
7.2553861E+3 1.0101253E+0
7.2558861E+3 1.0075890E+0
7.2563860E+3 1.0152086E+0
7.2568860E+3 1.0052493E+0
7.2573859E+3 1.0142296E+0
7.2578859E+3 1.0003702E+0
7.2583858E+3 1.0089245E+0
7.2588858E+3 1.0010158E+0
7.2593857E+3 1.0065865E+0
7.2598857E+3 1.0021876E+0
7.2603856E+3 1.0003040E+0
7.2608856E+3 9.9461828E-1
7.2613855E+3 9.9673493E-1
7.2618854E+3 9.9532312E-1
7.2623854E+3 9.9560798E-1
7.2628853E+3 9.9602971E-1
7.2633853E+3 9.9848453E-1
7.2638852E+3 9.9242205E-1
7.2643852E+3 9.9592648E-1
7.2648851E+3 9.8935781E-1
7.2653851E+3 9.8905620E-1
7.2658850E+3 9.8597963E-1
7.2663850E+3 9.9202905E-1
7.2668849E+3 9.9069454E-1
7.2673849E+3 9.8625551E-1
7.2678848E+3 9.9153981E-1
7.2683848E+3 9.8504371E-1
7.2688847E+3 9.8423046E-1
7.2693847E+3 9.8763201E-1
7.2698846E+3 9.8436074E-1
7.2703846E+3 9.7820359E-1
7.2708845E+3 9.7963588E-1
7.2713845E+3 9.7702349E-1
7.2718844E+3 9.8311229E-1
7.2723843E+3 9.8081661E-1
7.2728843E+3 9.7513511E-1
7.2733842E+3 9.7637245E-1
7.2738842E+3 9.8253411E-1
7.2743841E+3 9.7315918E-1
7.2793836E+3 9.9380174E-1
7.2843831E+3 1.0025586E+0
7.2893826E+3 1.0017248E+0
7.2943820E+3 9.8947184E-1
7.2993815E+3 9.8632447E-1
7.3043810E+3 9.8358278E-1
7.3093805E+3 1.0001221E+0
7.3143799E+3 1.0040815E+0
7.3193794E+3 1.0060569E+0
7.3243789E+3 9.9803312E-1
7.3293784E+3 9.9554229E-1
7.3343778E+3 1.0092776E+0
7.3393773E+3 1.0013820E+0
7.3443768E+3 1.0024199E+0
7.3493763E+3 9.9278303E-1
7.3543757E+3 9.9697673E-1
7.3593752E+3 9.8860936E-1
7.3643747E+3 9.8677192E-1
7.3693741E+3 9.8101890E-1
7.3743736E+3 9.8191430E-1
7.3793731E+3 9.9287038E-1
7.3843725E+3 1.0114809E+0
7.3893720E+3 1.0064752E+0
7.3943715E+3 1.0038246E+0
7.3993710E+3 1.0115067E+0
7.4043704E+3 1.0134941E+0
7.4093699E+3 1.0130945E+0
7.4143694E+3 1.0089152E+0
