#%Name: Fayalite
#%Formula: Fe2SiO4
#%Mineral class: silicates
#%Xtal system: orthorombic
#%Edge: K
#%Sample prep: powder on kapton tape
#%Beamline: ALS 10.3.2, HxV slits = 100x20 um
#%Det:  I0=N2, Fluorescence mode (Ge solid state 7elts)
#%Ref/notes:  
#%Temp: Room temp (28C)
#%Time&date: 3:46 AM 2/19/2006. Matthew A. Marcus
#%============================================================
7.0103507E+3 2.6097849E-3
7.0153501E+3 2.4142217E-3
7.0203495E+3 3.0405215E-3
7.0253489E+3 3.1745674E-3
7.0303483E+3 3.1415384E-3
7.0353477E+3 5.1037381E-3
7.0403471E+3 3.4744770E-3
7.0453465E+3 5.1096901E-3
7.0503459E+3 4.8730868E-3
7.0553453E+3 4.5134858E-3
7.0603447E+3 5.3398719E-3
7.0653441E+3 4.4532637E-3
7.0703435E+3 3.9760896E-3
7.0753429E+3 6.5830176E-3
7.0803423E+3 6.1738668E-3
7.0853417E+3 8.8659691E-3
7.0903411E+3 9.3314211E-3
7.0953405E+3 1.1184987E-2
7.0958404E+3 1.0967486E-2
7.0963404E+3 1.3285994E-2
7.0968403E+3 1.3484426E-2
7.0973403E+3 1.4702023E-2
7.0978402E+3 1.4838722E-2
7.0983401E+3 1.4104045E-2
7.0988401E+3 1.1655081E-2
7.0993400E+3 1.3087082E-2
7.0998400E+3 1.3241815E-2
7.1003399E+3 1.4082602E-2
7.1008398E+3 1.3693093E-2
7.1013398E+3 1.4624770E-2
7.1018397E+3 1.4523586E-2
7.1023397E+3 1.5524634E-2
7.1028396E+3 1.5684319E-2
7.1033395E+3 1.5119267E-2
7.1038395E+3 1.5203694E-2
7.1043394E+3 1.8326691E-2
7.1048394E+3 1.8908359E-2
7.1053393E+3 1.8898684E-2
7.1058392E+3 2.0015937E-2
7.1063392E+3 1.9909646E-2
7.1068391E+3 2.0010466E-2
7.1073391E+3 2.1598727E-2
7.1078390E+3 2.3614623E-2
7.1083389E+3 2.5897579E-2
7.1088389E+3 2.6512487E-2
7.1093388E+3 3.0525925E-2
7.1098388E+3 3.3282727E-2
7.1103387E+3 4.2896289E-2
7.1108386E+3 5.3870017E-2
7.1113386E+3 6.0471602E-2
7.1118385E+3 6.5953218E-2
7.1123385E+3 7.1374797E-2
7.1128384E+3 7.7970696E-2
7.1133383E+3 7.8040332E-2
7.1138383E+3 7.7570193E-2
7.1143382E+3 8.2151488E-2
7.1148382E+3 8.9130830E-2
7.1153381E+3 1.0072516E-1
7.1158380E+3 1.2028269E-1
7.1163380E+3 1.5247671E-1
7.1168379E+3 1.9397102E-1
7.1173379E+3 2.3624317E-1
7.1178378E+3 2.9376637E-1
7.1183377E+3 3.5427864E-1
7.1188377E+3 4.3341779E-1
7.1193376E+3 5.0530306E-1
7.1198375E+3 5.7181986E-1
7.1203375E+3 6.3810795E-1
7.1208374E+3 7.0700700E-1
7.1213374E+3 7.6762861E-1
7.1218373E+3 8.4072371E-1
7.1223372E+3 9.3832455E-1
7.1228372E+3 1.0366651E+0
7.1233371E+3 1.1367552E+0
7.1238371E+3 1.2103423E+0
7.1243370E+3 1.2674037E+0
7.1248369E+3 1.3020004E+0
7.1253369E+3 1.3306781E+0
7.1258368E+3 1.3608143E+0
7.1263368E+3 1.3833909E+0
7.1268367E+3 1.4024826E+0
7.1273366E+3 1.4098715E+0
7.1278366E+3 1.4086566E+0
7.1283365E+3 1.3914124E+0
7.1288365E+3 1.3645013E+0
7.1293364E+3 1.3273785E+0
7.1298363E+3 1.2840648E+0
7.1303363E+3 1.2424143E+0
7.1308362E+3 1.2022291E+0
7.1313362E+3 1.1733918E+0
7.1318361E+3 1.1465010E+0
7.1323360E+3 1.1209158E+0
7.1328360E+3 1.1000390E+0
7.1333359E+3 1.0806881E+0
7.1338359E+3 1.0668398E+0
7.1343358E+3 1.0550178E+0
7.1348357E+3 1.0424219E+0
7.1353357E+3 1.0345225E+0
7.1358356E+3 1.0220504E+0
7.1363356E+3 1.0160881E+0
7.1368355E+3 1.0070832E+0
7.1373354E+3 1.0023406E+0
7.1378354E+3 1.0008867E+0
7.1383353E+3 9.9874504E-1
7.1388353E+3 9.9590126E-1
7.1393352E+3 9.9704740E-1
7.1398351E+3 9.9853711E-1
7.1403351E+3 9.9953183E-1
7.1413350E+3 1.0016064E+0
7.1423348E+3 9.9806299E-1
7.1433347E+3 9.9099193E-1
7.1443346E+3 9.7859857E-1
7.1453345E+3 9.5819025E-1
7.1463343E+3 9.4158288E-1
7.1473342E+3 9.2379635E-1
7.1483341E+3 9.1079640E-1
7.1493340E+3 8.9705089E-1
7.1503339E+3 8.9154964E-1
7.1513337E+3 8.8907430E-1
7.1523336E+3 8.8746080E-1
7.1533335E+3 8.8775091E-1
7.1543334E+3 8.9249486E-1
7.1553333E+3 8.9506387E-1
7.1563331E+3 8.9844278E-1
7.1573330E+3 9.0104911E-1
7.1583329E+3 9.0752261E-1
7.1593328E+3 9.1595930E-1
7.1603326E+3 9.2691093E-1
7.1613325E+3 9.3689870E-1
7.1623324E+3 9.5107242E-1
7.1633323E+3 9.6753967E-1
7.1643322E+3 9.8171237E-1
7.1653320E+3 9.9852018E-1
7.1663319E+3 1.0131394E+0
7.1673318E+3 1.0265437E+0
7.1683317E+3 1.0405348E+0
7.1693316E+3 1.0503633E+0
7.1703314E+3 1.0602817E+0
7.1713313E+3 1.0682115E+0
7.1723312E+3 1.0733379E+0
7.1733311E+3 1.0761911E+0
7.1743309E+3 1.0769315E+0
7.1753308E+3 1.0762916E+0
7.1763307E+3 1.0732286E+0
7.1773306E+3 1.0690354E+0
7.1783305E+3 1.0667097E+0
7.1793303E+3 1.0580773E+0
7.1803302E+3 1.0540577E+0
7.1813301E+3 1.0461360E+0
7.1823300E+3 1.0395010E+0
7.1833299E+3 1.0316779E+0
7.1843297E+3 1.0251058E+0
7.1853296E+3 1.0205108E+0
7.1863295E+3 1.0149066E+0
7.1873294E+3 1.0080034E+0
7.1883292E+3 1.0021583E+0
7.1893291E+3 9.9596943E-1
7.1903290E+3 9.9047061E-1
7.1913289E+3 9.8471779E-1
7.1923288E+3 9.8075010E-1
7.1933286E+3 9.7781310E-1
7.1943285E+3 9.7471542E-1
7.1953284E+3 9.7349356E-1
7.1963283E+3 9.7091005E-1
7.1973281E+3 9.7388846E-1
7.1983280E+3 9.7187277E-1
7.1993279E+3 9.7521451E-1
7.2003278E+3 9.7885571E-1
7.2013277E+3 9.7810570E-1
7.2023275E+3 9.7943242E-1
7.2033274E+3 9.7861646E-1
7.2043273E+3 9.7916471E-1
7.2053272E+3 9.7849198E-1
7.2063270E+3 9.8028424E-1
7.2073269E+3 9.7907277E-1
7.2083268E+3 9.7915106E-1
7.2093267E+3 9.8067027E-1
7.2103266E+3 9.7979995E-1
7.2123263E+3 9.8543419E-1
7.2143261E+3 9.9209974E-1
7.2163258E+3 9.9989073E-1
7.2183256E+3 1.0057047E+0
7.2203253E+3 1.0093495E+0
7.2223251E+3 1.0110901E+0
7.2243248E+3 1.0104454E+0
7.2263246E+3 1.0045103E+0
7.2283244E+3 9.9655484E-1
7.2303241E+3 9.8839318E-1
7.2323239E+3 9.8061129E-1
7.2343236E+3 9.7382589E-1
7.2363234E+3 9.7255824E-1
7.2383231E+3 9.7284945E-1
7.2403229E+3 9.8112400E-1
7.2423226E+3 9.8555012E-1
7.2443224E+3 9.9488839E-1
7.2463221E+3 1.0019648E+0
7.2483219E+3 1.0065226E+0
7.2503217E+3 1.0082308E+0
7.2523214E+3 1.0111650E+0
7.2543212E+3 1.0071870E+0
7.2548211E+3 1.0084004E+0
7.2553210E+3 1.0079967E+0
7.2558210E+3 1.0097560E+0
7.2563209E+3 1.0108442E+0
7.2568209E+3 1.0087454E+0
7.2573208E+3 1.0098479E+0
7.2578207E+3 1.0082240E+0
7.2583207E+3 1.0086958E+0
7.2588206E+3 1.0093574E+0
7.2593205E+3 1.0107065E+0
7.2598205E+3 1.0096559E+0
7.2603204E+3 1.0088121E+0
7.2608204E+3 1.0083026E+0
7.2613203E+3 1.0087896E+0
7.2618202E+3 1.0097324E+0
7.2623202E+3 1.0109447E+0
7.2628201E+3 1.0118890E+0
7.2633201E+3 1.0087424E+0
7.2638200E+3 1.0093320E+0
7.2643199E+3 1.0100394E+0
7.2648199E+3 1.0126935E+0
7.2653198E+3 1.0122186E+0
7.2658197E+3 1.0149168E+0
7.2663197E+3 1.0132170E+0
7.2668196E+3 1.0141862E+0
7.2673196E+3 1.0119752E+0
7.2678195E+3 1.0111302E+0
7.2683194E+3 1.0136024E+0
7.2688194E+3 1.0135490E+0
7.2693193E+3 1.0129896E+0
7.2698193E+3 1.0119661E+0
7.2703192E+3 1.0150120E+0
7.2708191E+3 1.0138593E+0
7.2713191E+3 1.0143360E+0
7.2718190E+3 1.0157765E+0
7.2723189E+3 1.0140655E+0
7.2728189E+3 1.0142778E+0
7.2733188E+3 1.0141078E+0
7.2738188E+3 1.0121339E+0
7.2743187E+3 1.0103370E+0
7.2793181E+3 1.0076489E+0
7.2843175E+3 9.9484729E-1
7.2893168E+3 9.8235453E-1
7.2943162E+3 9.7597691E-1
7.2993156E+3 9.7830643E-1
7.3043150E+3 9.8492734E-1
7.3093144E+3 9.8989843E-1
7.3143138E+3 9.9327673E-1
7.3193131E+3 9.9652364E-1
7.3243125E+3 9.9918150E-1
7.3293119E+3 1.0016655E+0
7.3343113E+3 1.0036911E+0
7.3393107E+3 1.0027291E+0
7.3443100E+3 9.9869964E-1
7.3493094E+3 9.9680656E-1
7.3543088E+3 9.9423934E-1
7.3593082E+3 9.9235147E-1
7.3643075E+3 9.9208931E-1
7.3693069E+3 9.9076422E-1
7.3743063E+3 9.9253951E-1
7.3793057E+3 9.9352181E-1
7.3843050E+3 9.9288901E-1
7.3893044E+3 9.9408220E-1
7.3943038E+3 9.9773350E-1
7.3993032E+3 9.9899661E-1
7.4043025E+3 9.9916425E-1
7.4093019E+3 9.9789040E-1
7.4143013E+3 1.0014197E+0
