#%Name: Hypersthene
#%Formula: (Mg,Fe)SiO3
#%Mineral class: silicate
#%Xtal system: Orthorhombic  
#%Edge: K
#%Sample prep: powder on kapton tape
#%Beamline: ALS 10.3.2, HxV slits = 50x20 um
#%Det:  I0=N2, Fluorescence mode (Ge solid state 7elts)
#%Ref/notes:  from MRC, CA-USA. XRD confirmed
#%Temp: Room temp (28C)
#%Time&date: 2:01 PM 1/13/2007. Sirine C. Fakra, Matthew A. Marcus
#%============================================================
7.0108250E+3 1.9843846E-3
7.0158252E+3 2.0886092E-3
7.0208253E+3 2.2036595E-3
7.0258254E+3 2.3307574E-3
7.0308255E+3 2.5362622E-3
7.0358256E+3 2.6565585E-3
7.0408257E+3 2.8023579E-3
7.0458258E+3 3.0457795E-3
7.0508259E+3 3.2317705E-3
7.0558261E+3 3.5171564E-3
7.0608262E+3 3.8970805E-3
7.0658263E+3 4.3285756E-3
7.0708264E+3 4.7665515E-3
7.0758265E+3 5.3274775E-3
7.0808266E+3 6.0434443E-3
7.0858267E+3 7.0156507E-3
7.0908268E+3 8.3138771E-3
7.0958270E+3 1.0152591E-2
7.0963270E+3 1.0350889E-2
7.0968270E+3 1.0569527E-2
7.0973270E+3 1.0796581E-2
7.0978270E+3 1.1094437E-2
7.0983270E+3 1.1454533E-2
7.0988270E+3 1.1642184E-2
7.0993270E+3 1.1870847E-2
7.0998271E+3 1.2298322E-2
7.1003271E+3 1.2495834E-2
7.1008271E+3 1.2842930E-2
7.1013271E+3 1.3340097E-2
7.1018271E+3 1.3664039E-2
7.1023271E+3 1.4048792E-2
7.1028271E+3 1.4715398E-2
7.1033271E+3 1.5209136E-2
7.1038271E+3 1.5711130E-2
7.1043272E+3 1.6223438E-2
7.1048272E+3 1.6876317E-2
7.1053272E+3 1.7627635E-2
7.1058272E+3 1.8279930E-2
7.1063272E+3 1.9199855E-2
7.1068272E+3 2.0146317E-2
7.1073272E+3 2.1264741E-2
7.1078272E+3 2.2555184E-2
7.1083272E+3 2.4020745E-2
7.1088273E+3 2.5989055E-2
7.1093273E+3 2.8890137E-2
7.1098273E+3 3.3401536E-2
7.1103273E+3 4.1172640E-2
7.1108273E+3 5.0958176E-2
7.1113273E+3 5.7408818E-2
7.1118273E+3 6.0643988E-2
7.1123273E+3 6.2214830E-2
7.1128273E+3 6.1807473E-2
7.1133274E+3 5.8696115E-2
7.1138274E+3 5.7777998E-2
7.1143274E+3 6.0507508E-2
7.1148274E+3 6.6936257E-2
7.1153274E+3 7.7705213E-2
7.1158274E+3 9.4285493E-2
7.1163274E+3 1.2252656E-1
7.1168274E+3 1.6928481E-1
7.1173274E+3 2.2503751E-1
7.1178275E+3 2.9493013E-1
7.1183275E+3 3.8825761E-1
7.1188275E+3 5.1372425E-1
7.1193275E+3 6.6770510E-1
7.1198275E+3 8.2343062E-1
7.1203275E+3 9.6555036E-1
7.1208275E+3 1.0616573E+0
7.1213275E+3 1.0964680E+0
7.1218275E+3 1.1177110E+0
7.1223276E+3 1.1597725E+0
7.1228276E+3 1.2153639E+0
7.1233276E+3 1.2755237E+0
7.1238276E+3 1.3242579E+0
7.1243276E+3 1.3586251E+0
7.1248276E+3 1.3758090E+0
7.1253276E+3 1.3694144E+0
7.1258276E+3 1.3396642E+0
7.1263277E+3 1.2906932E+0
7.1268277E+3 1.2371722E+0
7.1273277E+3 1.1971538E+0
7.1278277E+3 1.1888015E+0
7.1283277E+3 1.2104697E+0
7.1288277E+3 1.2576861E+0
7.1293277E+3 1.3169706E+0
7.1298277E+3 1.3667281E+0
7.1303277E+3 1.3836687E+0
7.1308278E+3 1.3672860E+0
7.1313278E+3 1.3196837E+0
7.1318278E+3 1.2584940E+0
7.1323278E+3 1.1898758E+0
7.1328278E+3 1.1326592E+0
7.1333278E+3 1.0852128E+0
7.1338278E+3 1.0460842E+0
7.1343278E+3 1.0153746E+0
7.1348278E+3 9.9389137E-1
7.1353279E+3 9.7680338E-1
7.1358279E+3 9.6088978E-1
7.1363279E+3 9.4825921E-1
7.1368279E+3 9.3614627E-1
7.1373279E+3 9.2440351E-1
7.1378279E+3 9.1384760E-1
7.1383279E+3 9.0513586E-1
7.1388279E+3 8.9650509E-1
7.1393279E+3 8.9130200E-1
7.1398280E+3 8.8998302E-1
7.1403280E+3 8.9586326E-1
7.1408280E+3 9.0522762E-1
7.1418280E+3 9.2082908E-1
7.1428280E+3 9.2662628E-1
7.1438280E+3 9.2738059E-1
7.1448281E+3 9.2864272E-1
7.1458281E+3 9.2888041E-1
7.1468281E+3 9.2674729E-1
7.1478281E+3 9.1794132E-1
7.1488282E+3 9.0734443E-1
7.1498282E+3 8.9727100E-1
7.1508282E+3 8.9019299E-1
7.1518282E+3 8.8926160E-1
7.1528283E+3 8.8521172E-1
7.1538283E+3 8.8564602E-1
7.1548283E+3 8.9033214E-1
7.1558283E+3 8.9641582E-1
7.1568283E+3 9.0466450E-1
7.1578284E+3 9.1337665E-1
7.1588284E+3 9.2452684E-1
7.1598284E+3 9.3536189E-1
7.1608284E+3 9.4836446E-1
7.1618285E+3 9.6154178E-1
7.1628285E+3 9.7466654E-1
7.1638285E+3 9.8898579E-1
7.1648285E+3 1.0003438E+0
7.1658285E+3 1.0095652E+0
7.1668286E+3 1.0142575E+0
7.1678286E+3 1.0163751E+0
7.1688286E+3 1.0193724E+0
7.1698286E+3 1.0207786E+0
7.1708287E+3 1.0267071E+0
7.1718287E+3 1.0278593E+0
7.1728287E+3 1.0269449E+0
7.1738287E+3 1.0246284E+0
7.1748288E+3 1.0230508E+0
7.1758288E+3 1.0215771E+0
7.1768288E+3 1.0216422E+0
7.1778288E+3 1.0216689E+0
7.1788288E+3 1.0230290E+0
7.1798289E+3 1.0246142E+0
7.1808289E+3 1.0274647E+0
7.1818289E+3 1.0279308E+0
7.1828289E+3 1.0277679E+0
7.1838290E+3 1.0279509E+0
7.1848290E+3 1.0249817E+0
7.1858290E+3 1.0223220E+0
7.1868290E+3 1.0183973E+0
7.1878291E+3 1.0136130E+0
7.1888291E+3 1.0066589E+0
7.1898291E+3 9.9829018E-1
7.1908291E+3 9.9258583E-1
7.1918291E+3 9.9102056E-1
7.1928292E+3 9.8855933E-1
7.1938292E+3 9.8922037E-1
7.1948292E+3 9.8757952E-1
7.1958292E+3 9.8669582E-1
7.1968293E+3 9.8784226E-1
7.1978293E+3 9.8914078E-1
7.1988293E+3 9.8929985E-1
7.1998293E+3 9.8940125E-1
7.2008294E+3 9.8721286E-1
7.2018294E+3 9.8661341E-1
7.2028294E+3 9.8145711E-1
7.2038294E+3 9.8050895E-1
7.2048294E+3 9.7880941E-1
7.2058295E+3 9.7510368E-1
7.2068295E+3 9.7412210E-1
7.2078295E+3 9.7249430E-1
7.2088295E+3 9.7199488E-1
7.2098296E+3 9.7286312E-1
7.2108296E+3 9.7442416E-1
7.2128296E+3 9.7866719E-1
7.2148297E+3 9.8106856E-1
7.2168297E+3 9.8340225E-1
7.2188298E+3 9.8552646E-1
7.2208298E+3 9.8554779E-1
7.2228299E+3 9.8647715E-1
7.2248299E+3 9.8345025E-1
7.2268299E+3 9.7994410E-1
7.2288300E+3 9.7704351E-1
7.2308300E+3 9.7408794E-1
7.2328301E+3 9.7282929E-1
7.2348301E+3 9.7485432E-1
7.2368302E+3 9.7772700E-1
7.2388302E+3 9.8305176E-1
7.2408303E+3 9.8981657E-1
7.2428303E+3 9.9574556E-1
7.2448304E+3 1.0022829E+0
7.2468304E+3 1.0092618E+0
7.2488305E+3 1.0133147E+0
7.2508305E+3 1.0153105E+0
7.2528305E+3 1.0161166E+0
7.2548306E+3 1.0152818E+0
7.2553306E+3 1.0144100E+0
7.2558306E+3 1.0138269E+0
7.2563306E+3 1.0137454E+0
7.2568306E+3 1.0145659E+0
7.2573307E+3 1.0133978E+0
7.2578307E+3 1.0126374E+0
7.2583307E+3 1.0125492E+0
7.2588307E+3 1.0116816E+0
7.2593307E+3 1.0119400E+0
7.2598307E+3 1.0112983E+0
7.2603307E+3 1.0107137E+0
7.2608307E+3 1.0101792E+0
7.2613307E+3 1.0133924E+0
7.2618308E+3 1.0142372E+0
7.2623308E+3 1.0125872E+0
7.2628308E+3 1.0144315E+0
7.2633308E+3 1.0118145E+0
7.2638308E+3 1.0052963E+0
7.2643308E+3 1.0102344E+0
7.2648308E+3 1.0139558E+0
7.2653308E+3 1.0124883E+0
7.2658308E+3 1.0112346E+0
7.2663309E+3 1.0116685E+0
7.2668309E+3 1.0106868E+0
7.2673309E+3 1.0104900E+0
7.2678309E+3 1.0097799E+0
7.2683309E+3 1.0101203E+0
7.2688309E+3 1.0086440E+0
7.2693309E+3 1.0083872E+0
7.2698309E+3 1.0081861E+0
7.2703310E+3 1.0071938E+0
7.2708310E+3 1.0061094E+0
7.2713310E+3 1.0033859E+0
7.2718310E+3 1.0015589E+0
7.2723310E+3 1.0032059E+0
7.2728310E+3 1.0030778E+0
7.2733310E+3 1.0024850E+0
7.2738310E+3 1.0024179E+0
7.2743310E+3 1.0037063E+0
7.2748311E+3 1.0024909E+0
7.2798312E+3 9.9670617E-1
7.2848313E+3 9.9285076E-1
7.2898314E+3 9.8809596E-1
7.2948315E+3 9.8637627E-1
7.2998316E+3 9.8222407E-1
7.3048318E+3 9.8214073E-1
7.3098319E+3 9.8817073E-1
7.3148320E+3 9.9141086E-1
7.3198321E+3 9.9477476E-1
7.3248322E+3 9.9598855E-1
7.3298323E+3 9.9965749E-1
7.3348325E+3 9.9922768E-1
7.3398326E+3 9.9765436E-1
7.3448327E+3 9.9832554E-1
7.3498328E+3 9.9794455E-1
7.3548329E+3 9.9692672E-1
7.3598330E+3 9.9617865E-1
7.3648332E+3 9.9740721E-1
7.3698333E+3 9.9817662E-1
7.3748334E+3 9.9947800E-1
7.3798335E+3 9.9879390E-1
7.3848336E+3 9.9969621E-1
7.3898337E+3 1.0014101E+0
7.3948339E+3 1.0017117E+0
7.3998340E+3 1.0004822E+0
7.4048341E+3 1.0006783E+0
7.4098342E+3 9.9763406E-1
