#%Name: Greigite
#%Formula:Fe2+Fe3+2S4
#%Mineral class:sulfide
#%Xtal system:cubic
#%Edge: K
#%Sample prep: powder on kapton tape
#%Beamline: ALS 10.3.2, HxV slits = 70x20 um
#%Det:  I0=N2, Fluorescence mode (Ge solid state 7elts)
#%Ref/notes: from MRC CA-USA, XRD 10.3.2 checked
#%Temp: Room temp (28 degC)
#%Time&date: 10/05/2010. Sirine C. Fakra
#%============================================================
7.0109890E+3 2.1205558E-3
7.0159894E+3 2.2981234E-3
7.0209897E+3 2.3712607E-3
7.0259901E+3 2.4848500E-3
7.0309904E+3 2.7022692E-3
7.0359908E+3 2.7886465E-3
7.0409911E+3 2.9928692E-3
7.0459915E+3 3.1588343E-3
7.0509919E+3 3.4743405E-3
7.0559922E+3 3.6773734E-3
7.0609926E+3 3.9923995E-3
7.0659929E+3 4.3577726E-3
7.0709933E+3 4.9439068E-3
7.0759936E+3 5.6298249E-3
7.0809940E+3 6.3685712E-3
7.0859944E+3 7.3714593E-3
7.0909947E+3 8.9827119E-3
7.0959951E+3 1.1012279E-2
7.0962951E+3 1.1198105E-2
7.0965951E+3 1.1264093E-2
7.0968951E+3 1.1439363E-2
7.0971952E+3 1.1573088E-2
7.0974952E+3 1.1700511E-2
7.0977952E+3 1.2072721E-2
7.0980952E+3 1.2198325E-2
7.0983953E+3 1.2369509E-2
7.0986953E+3 1.2573893E-2
7.0989953E+3 1.2811017E-2
7.0992953E+3 1.3037576E-2
7.0995953E+3 1.3278446E-2
7.0998954E+3 1.3560881E-2
7.1001954E+3 1.3751421E-2
7.1004954E+3 1.4111750E-2
7.1007954E+3 1.4301627E-2
7.1010955E+3 1.4411052E-2
7.1013955E+3 1.4859127E-2
7.1016955E+3 1.5245224E-2
7.1019955E+3 1.5501262E-2
7.1022955E+3 1.5802967E-2
7.1025956E+3 1.6211038E-2
7.1028956E+3 1.6656939E-2
7.1031956E+3 1.7008696E-2
7.1034956E+3 1.7391767E-2
7.1037956E+3 1.7814217E-2
7.1040957E+3 1.8305668E-2
7.1043957E+3 1.8508641E-2
7.1046957E+3 1.9273540E-2
7.1049957E+3 1.9736658E-2
7.1052958E+3 2.0120441E-2
7.1055958E+3 2.0648921E-2
7.1058958E+3 2.1512515E-2
7.1061958E+3 2.2423548E-2
7.1064958E+3 2.2862157E-2
7.1067959E+3 2.3911932E-2
7.1070959E+3 2.4863188E-2
7.1073959E+3 2.5584641E-2
7.1076959E+3 2.6839018E-2
7.1079959E+3 2.8587929E-2
7.1082960E+3 2.9996613E-2
7.1085960E+3 3.1915092E-2
7.1088960E+3 3.4018585E-2
7.1091960E+3 3.6997778E-2
7.1094961E+3 4.0049288E-2
7.1097961E+3 4.6349768E-2
7.1100961E+3 5.1331533E-2
7.1103961E+3 6.1288941E-2
7.1106961E+3 7.8225263E-2
7.1109962E+3 9.3661726E-2
7.1112962E+3 1.0781635E-1
7.1115962E+3 1.2490085E-1
7.1118962E+3 1.3448104E-1
7.1121963E+3 1.4047823E-1
7.1124963E+3 1.4183575E-1
7.1127963E+3 1.4117576E-1
7.1130963E+3 1.3921986E-1
7.1133963E+3 1.3747613E-1
7.1136964E+3 1.3677974E-1
7.1139964E+3 1.3569293E-1
7.1142964E+3 1.3668438E-1
7.1145964E+3 1.4195122E-1
7.1148964E+3 1.5658498E-1
7.1151965E+3 1.7353660E-1
7.1154965E+3 1.9417583E-1
7.1157965E+3 2.2392943E-1
7.1160965E+3 2.7027050E-1
7.1163966E+3 3.0648928E-1
7.1166966E+3 3.5103155E-1
7.1169966E+3 4.1245874E-1
7.1172966E+3 4.5793825E-1
7.1175966E+3 5.0008706E-1
7.1178967E+3 5.3975206E-1
7.1181967E+3 5.8520522E-1
7.1184967E+3 6.1282533E-1
7.1187967E+3 6.4974246E-1
7.1190967E+3 6.8901955E-1
7.1193968E+3 7.1332854E-1
7.1196968E+3 7.4498320E-1
7.1199968E+3 7.6697280E-1
7.1202968E+3 7.8403078E-1
7.1205969E+3 7.9996156E-1
7.1208969E+3 8.1782780E-1
7.1211969E+3 8.2864504E-1
7.1214969E+3 8.3705271E-1
7.1217969E+3 8.4555219E-1
7.1220970E+3 8.4846912E-1
7.1223970E+3 8.5028313E-1
7.1226970E+3 8.5104580E-1
7.1229970E+3 8.5208000E-1
7.1232971E+3 8.5337761E-1
7.1235971E+3 8.5618134E-1
7.1238971E+3 8.5852829E-1
7.1241971E+3 8.6343799E-1
7.1244971E+3 8.6897235E-1
7.1247972E+3 8.7833334E-1
7.1250972E+3 8.8888233E-1
7.1253972E+3 9.0059677E-1
7.1256972E+3 9.1434367E-1
7.1259972E+3 9.2868020E-1
7.1262973E+3 9.4111814E-1
7.1265973E+3 9.5089231E-1
7.1268973E+3 9.6640084E-1
7.1271973E+3 9.8408716E-1
7.1274974E+3 9.9285188E-1
7.1277974E+3 1.0046705E+0
7.1280974E+3 1.0211779E+0
7.1283974E+3 1.0341041E+0
7.1286974E+3 1.0447988E+0
7.1289975E+3 1.0576131E+0
7.1292975E+3 1.0661056E+0
7.1295975E+3 1.0745140E+0
7.1298975E+3 1.0807174E+0
7.1301976E+3 1.0887391E+0
7.1304976E+3 1.0945061E+0
7.1307976E+3 1.0981835E+0
7.1310976E+3 1.1026651E+0
7.1313976E+3 1.1073254E+0
7.1316977E+3 1.1114606E+0
7.1319977E+3 1.1133625E+0
7.1322977E+3 1.1151271E+0
7.1325977E+3 1.1158324E+0
7.1328977E+3 1.1146519E+0
7.1331978E+3 1.1163063E+0
7.1334978E+3 1.1159676E+0
7.1337978E+3 1.1147793E+0
7.1340978E+3 1.1153265E+0
7.1343979E+3 1.1168531E+0
7.1346979E+3 1.1161724E+0
7.1349979E+3 1.1164798E+0
7.1352979E+3 1.1146062E+0
7.1355979E+3 1.1170269E+0
7.1358980E+3 1.1195208E+0
7.1361980E+3 1.1182299E+0
7.1364980E+3 1.1162703E+0
7.1367980E+3 1.1162524E+0
7.1370980E+3 1.1154219E+0
7.1373981E+3 1.1152542E+0
7.1376981E+3 1.1130509E+0
7.1379981E+3 1.1147010E+0
7.1382981E+3 1.1097559E+0
7.1385982E+3 1.1080707E+0
7.1388982E+3 1.1043315E+0
7.1391982E+3 1.1008443E+0
7.1394982E+3 1.0958607E+0
7.1397982E+3 1.0914357E+0
7.1400983E+3 1.0898681E+0
7.1403983E+3 1.0870922E+0
7.1406983E+3 1.0850843E+0
7.1409983E+3 1.0802154E+0
7.1419984E+3 1.0757775E+0
7.1429985E+3 1.0728883E+0
7.1439985E+3 1.0694329E+0
7.1449986E+3 1.0645610E+0
7.1459987E+3 1.0610032E+0
7.1469988E+3 1.0559731E+0
7.1479988E+3 1.0503936E+0
7.1489989E+3 1.0425163E+0
7.1499990E+3 1.0326039E+0
7.1509991E+3 1.0233411E+0
7.1519991E+3 1.0111829E+0
7.1529992E+3 1.0000017E+0
7.1539993E+3 9.8614480E-1
7.1549993E+3 9.7399914E-1
7.1559994E+3 9.6297284E-1
7.1569995E+3 9.5537098E-1
7.1579996E+3 9.4569943E-1
7.1589996E+3 9.4086794E-1
7.1599997E+3 9.3366739E-1
7.1609998E+3 9.2975856E-1
7.1619999E+3 9.2643779E-1
7.1629999E+3 9.2688952E-1
7.1640000E+3 9.3155137E-1
7.1650001E+3 9.3669483E-1
7.1660001E+3 9.4502405E-1
7.1670002E+3 9.5426407E-1
7.1680003E+3 9.6278012E-1
7.1690004E+3 9.7500661E-1
7.1700004E+3 9.8616537E-1
7.1710005E+3 9.9404919E-1
7.1720006E+3 1.0040408E+0
7.1730007E+3 1.0104125E+0
7.1740007E+3 1.0177019E+0
7.1750008E+3 1.0240889E+0
7.1760009E+3 1.0274273E+0
7.1770009E+3 1.0309833E+0
7.1780010E+3 1.0336939E+0
7.1790011E+3 1.0352701E+0
7.1800012E+3 1.0350634E+0
7.1810012E+3 1.0363783E+0
7.1820013E+3 1.0345901E+0
7.1830014E+3 1.0362233E+0
7.1840015E+3 1.0366838E+0
7.1850015E+3 1.0384278E+0
7.1860016E+3 1.0395491E+0
7.1870017E+3 1.0415626E+0
7.1880017E+3 1.0443671E+0
7.1890018E+3 1.0500287E+0
7.1900019E+3 1.0533653E+0
7.1910020E+3 1.0557474E+0
7.1920020E+3 1.0596527E+0
7.1930021E+3 1.0610609E+0
7.1940022E+3 1.0641481E+0
7.1950023E+3 1.0644587E+0
7.1960023E+3 1.0626271E+0
7.1970024E+3 1.0599032E+0
7.1980025E+3 1.0586537E+0
7.1990026E+3 1.0544052E+0
7.2000026E+3 1.0465380E+0
7.2010027E+3 1.0391341E+0
7.2020028E+3 1.0313764E+0
7.2030028E+3 1.0224073E+0
7.2040029E+3 1.0148076E+0
7.2050030E+3 1.0057735E+0
7.2060031E+3 1.0003068E+0
7.2070031E+3 9.9569657E-1
7.2080032E+3 9.8928310E-1
7.2090033E+3 9.8670224E-1
7.2100034E+3 9.8275806E-1
7.2110034E+3 9.7969484E-1
7.2130036E+3 9.7606751E-1
7.2150037E+3 9.7678955E-1
7.2170039E+3 9.7546294E-1
7.2190040E+3 9.7455264E-1
7.2210042E+3 9.7778715E-1
7.2230043E+3 9.7840601E-1
7.2250045E+3 9.8176940E-1
7.2270046E+3 9.8324603E-1
7.2290047E+3 9.8805090E-1
7.2310049E+3 9.9227808E-1
7.2330050E+3 9.9859725E-1
7.2350052E+3 1.0040540E+0
7.2370053E+3 1.0049682E+0
7.2390055E+3 1.0058373E+0
7.2410056E+3 1.0095224E+0
7.2430058E+3 1.0098692E+0
7.2450059E+3 1.0109083E+0
7.2470061E+3 1.0098971E+0
7.2490062E+3 1.0103454E+0
7.2510064E+3 1.0104326E+0
7.2530065E+3 1.0091713E+0
7.2550067E+3 1.0069001E+0
7.2570068E+3 1.0096441E+0
7.2573041E+3 1.0086666E+0
7.2576014E+3 1.0087081E+0
7.2578988E+3 1.0097752E+0
7.2581961E+3 1.0091309E+0
7.2584934E+3 1.0091780E+0
7.2587907E+3 1.0059757E+0
7.2590880E+3 1.0078884E+0
7.2593854E+3 1.0057642E+0
7.2596827E+3 1.0091329E+0
7.2599800E+3 1.0097551E+0
7.2602773E+3 1.0087771E+0
7.2605746E+3 1.0093484E+0
7.2608720E+3 1.0070467E+0
7.2611693E+3 1.0078440E+0
7.2614666E+3 1.0052855E+0
7.2617639E+3 1.0065671E+0
7.2620612E+3 1.0069592E+0
7.2623585E+3 1.0070259E+0
7.2626559E+3 1.0064085E+0
7.2629532E+3 1.0063757E+0
7.2632505E+3 1.0050949E+0
7.2635478E+3 1.0040025E+0
7.2638451E+3 1.0060067E+0
7.2641425E+3 1.0070696E+0
7.2644398E+3 1.0087029E+0
7.2647371E+3 1.0085221E+0
7.2650344E+3 1.0081374E+0
7.2653317E+3 1.0079635E+0
7.2656291E+3 1.0073051E+0
7.2659264E+3 1.0075382E+0
7.2662237E+3 1.0106200E+0
7.2665210E+3 1.0104258E+0
7.2668183E+3 1.0097076E+0
7.2671157E+3 1.0097939E+0
7.2674130E+3 1.0098880E+0
7.2677103E+3 1.0089616E+0
7.2680076E+3 1.0099174E+0
7.2699942E+3 1.0104483E+0
7.2719809E+3 1.0087522E+0
7.2739675E+3 1.0070484E+0
7.2759541E+3 1.0056348E+0
7.2779408E+3 1.0021812E+0
7.2799274E+3 1.0009120E+0
7.2819140E+3 1.0003185E+0
7.2839007E+3 9.9807390E-1
7.2858873E+3 9.9701517E-1
7.2878739E+3 9.9414241E-1
7.2898606E+3 9.9226529E-1
7.2918472E+3 9.8930764E-1
7.2938338E+3 9.8605930E-1
7.2958205E+3 9.8445221E-1
7.2978071E+3 9.7857127E-1
7.2997937E+3 9.8072257E-1
7.3017804E+3 9.7923681E-1
7.3037670E+3 9.7921047E-1
7.3057536E+3 9.8024362E-1
7.3077403E+3 9.8005463E-1
7.3097269E+3 9.8074143E-1
7.3117135E+3 9.8312869E-1
7.3137002E+3 9.8272756E-1
7.3156868E+3 9.8660964E-1
7.3176735E+3 9.8613645E-1
7.3196601E+3 9.8782561E-1
7.3216467E+3 9.9017489E-1
7.3236334E+3 9.9066724E-1
7.3256200E+3 9.9256145E-1
7.3276066E+3 9.9398018E-1
7.3295933E+3 9.9542213E-1
7.3315799E+3 9.9771502E-1
7.3335665E+3 9.9566755E-1
7.3355532E+3 9.9842076E-1
7.3375398E+3 9.9945110E-1
7.3395264E+3 1.0014692E+0
7.3415131E+3 1.0003728E+0
7.3434997E+3 9.9991804E-1
7.3454863E+3 9.9963555E-1
7.3474730E+3 1.0011360E+0
7.3494596E+3 1.0019975E+0
7.3514462E+3 1.0029620E+0
7.3534329E+3 1.0047667E+0
7.3554195E+3 1.0016732E+0
7.3574061E+3 1.0007197E+0
7.3593928E+3 1.0049201E+0
7.3613794E+3 1.0043317E+0
7.3633660E+3 1.0046956E+0
7.3653527E+3 1.0021921E+0
7.3673393E+3 1.0032271E+0
7.3693259E+3 1.0028234E+0
7.3713126E+3 1.0035086E+0
7.3732992E+3 1.0048253E+0
7.3752859E+3 1.0037309E+0
7.3772725E+3 1.0040958E+0
7.3792591E+3 1.0020084E+0
7.3812458E+3 1.0017768E+0
7.3832324E+3 1.0022008E+0
7.3852190E+3 1.0024495E+0
7.3872057E+3 1.0035232E+0
7.3891923E+3 1.0027614E+0
7.3911789E+3 1.0005983E+0
7.3931656E+3 1.0005788E+0
7.3951522E+3 9.9837686E-1
7.3971388E+3 9.9873231E-1
7.3991255E+3 1.0004533E+0
7.4011121E+3 1.0010004E+0
7.4030987E+3 1.0031139E+0
7.4050854E+3 9.9865055E-1
7.4070720E+3 9.9932942E-1
7.4090587E+3 1.0027153E+0
7.4110453E+3 1.0015275E+0
7.4130319E+3 1.0026968E+0
