#%Name: Esseneite ITFA component 3
#%Empirical formula: CaFe3+AlSiO6 / Webmineral
#%Mineral group: clinopyroxenes, inosilicate
#%Xtal system: Monoclinic  
#%Edge: K
#%Sample prep: powder on Kapton tape
#%Beamline: ALS 10.3.2, HxV slits = 200x20 um
#%Det:  I0=N2, Fluorescence mode (Ge solid state 7elts)
#%Ref/notes:  Mineralogical Research Company, San Jose, CA-USA. XRD confirmed.
#%Temp: Room temp (28C)
#%Time&date: 4:14 AM 2/25/2007
#%Provider: Sirine Fakra, Matthew A. Marcus.
#%============================================================
7.0105910E+3 1.9702943E-3
7.0155907E+3 2.0274474E-3
7.0205905E+3 1.9864521E-3
7.0255903E+3 2.0144655E-3
7.0305900E+3 2.2687398E-3
7.0355898E+3 1.7587622E-3
7.0405896E+3 2.3498935E-3
7.0455893E+3 2.6011857E-3
7.0505891E+3 4.1726198E-3
7.0555888E+3 3.2886363E-3
7.0605886E+3 3.6270601E-3
7.0655884E+3 3.7418861E-3
7.0705881E+3 4.0291205E-3
7.0755879E+3 5.7598784E-3
7.0805877E+3 6.1356143E-3
7.0855874E+3 6.1272120E-3
7.0905872E+3 7.3527473E-3
7.0955869E+3 8.6281405E-3
7.0960869E+3 9.3135774E-3
7.0965869E+3 8.9768755E-3
7.0970869E+3 9.6166231E-3
7.0975868E+3 8.9740063E-3
7.0980868E+3 8.8428025E-3
7.0985868E+3 9.4176822E-3
7.0990868E+3 9.6842912E-3
7.0995867E+3 9.8907278E-3
7.1000867E+3 9.8378347E-3
7.1005867E+3 9.7779552E-3
7.1010867E+3 1.0988831E-2
7.1015867E+3 1.0901240E-2
7.1020866E+3 1.1410196E-2
7.1025866E+3 1.1566018E-2
7.1030866E+3 1.2047183E-2
7.1035866E+3 1.1859725E-2
7.1040865E+3 1.3108453E-2
7.1045865E+3 1.2765112E-2
7.1050865E+3 1.2827080E-2
7.1055865E+3 1.4017918E-2
7.1060864E+3 1.4299396E-2
7.1065864E+3 1.4356685E-2
7.1070864E+3 1.5772561E-2
7.1075864E+3 1.5203771E-2
7.1080863E+3 1.5636465E-2
7.1085863E+3 1.6603029E-2
7.1090863E+3 1.8288937E-2
7.1095863E+3 1.9103963E-2
7.1100862E+3 2.0072008E-2
7.1105862E+3 2.3662752E-2
7.1110862E+3 2.7001350E-2
7.1115862E+3 3.3558545E-2
7.1120861E+3 4.7192214E-2
7.1125861E+3 6.1421886E-2
7.1130861E+3 7.6272628E-2
7.1135861E+3 8.2331610E-2
7.1140861E+3 7.7871485E-2
7.1145860E+3 6.6280151E-2
7.1150860E+3 5.2407517E-2
7.1155860E+3 4.5609196E-2
7.1160860E+3 4.5167884E-2
7.1165859E+3 4.6500781E-2
7.1170859E+3 4.7668591E-2
7.1175859E+3 5.1653493E-2
7.1180859E+3 5.7989970E-2
7.1185858E+3 6.4551503E-2
7.1190858E+3 7.7795500E-2
7.1195858E+3 9.3462294E-2
7.1200858E+3 1.1534873E-1
7.1205857E+3 1.4918209E-1
7.1210857E+3 1.8425297E-1
7.1215857E+3 2.2791047E-1
7.1220857E+3 2.7411502E-1
7.1225856E+3 3.5035772E-1
7.1230856E+3 4.1739587E-1
7.1235856E+3 4.8115394E-1
7.1240856E+3 5.3513917E-1
7.1245855E+3 6.0056740E-1
7.1250855E+3 6.7977260E-1
7.1255855E+3 7.7757693E-1
7.1260855E+3 8.8735037E-1
7.1265855E+3 1.0121372E+0
7.1270854E+3 1.1261439E+0
7.1275854E+3 1.2023678E+0
7.1280854E+3 1.2394757E+0
7.1285854E+3 1.2405679E+0
7.1290853E+3 1.2220433E+0
7.1295853E+3 1.1906827E+0
7.1300853E+3 1.1791894E+0
7.1305853E+3 1.2055910E+0
7.1310852E+3 1.2618214E+0
7.1315852E+3 1.3715914E+0
7.1320852E+3 1.4466274E+0
7.1325852E+3 1.4971038E+0
7.1330851E+3 1.5097590E+0
7.1335851E+3 1.4830683E+0
7.1340851E+3 1.4485563E+0
7.1345851E+3 1.4116022E+0
7.1350850E+3 1.3676851E+0
7.1355850E+3 1.3386482E+0
7.1360850E+3 1.2995236E+0
7.1365850E+3 1.2650982E+0
7.1370849E+3 1.2429330E+0
7.1375849E+3 1.2125120E+0
7.1380849E+3 1.1980803E+0
7.1385849E+3 1.1792076E+0
7.1390848E+3 1.1683871E+0
7.1395848E+3 1.1548360E+0
7.1400848E+3 1.1483003E+0
7.1405848E+3 1.1421674E+0
7.1415847E+3 1.1051600E+0
7.1425847E+3 1.0763682E+0
7.1435846E+3 1.0558878E+0
7.1445846E+3 1.0662805E+0
7.1455845E+3 1.0853619E+0
7.1465845E+3 1.1067391E+0
7.1475844E+3 1.1032944E+0
7.1485844E+3 1.0787169E+0
7.1495843E+3 1.0349637E+0
7.1505843E+3 1.0055219E+0
7.1515842E+3 9.7575148E-1
7.1525842E+3 9.5075450E-1
7.1535841E+3 9.2776294E-1
7.1545841E+3 9.0536453E-1
7.1555841E+3 8.7521396E-1
7.1565840E+3 8.5616454E-1
7.1575840E+3 8.3416598E-1
7.1585839E+3 8.2103336E-1
7.1595839E+3 8.1119772E-1
7.1605838E+3 8.0277473E-1
7.1615838E+3 8.0280873E-1
7.1625837E+3 8.1192855E-1
7.1635837E+3 8.2702802E-1
7.1645836E+3 8.3796536E-1
7.1655836E+3 8.5763981E-1
7.1665835E+3 8.7352385E-1
7.1675835E+3 8.8602942E-1
7.1685834E+3 8.9733737E-1
7.1695834E+3 9.1123394E-1
7.1705833E+3 9.3061109E-1
7.1715833E+3 9.3377168E-1
7.1725832E+3 9.5154595E-1
7.1735832E+3 9.7013906E-1
7.1745831E+3 9.8621095E-1
7.1755831E+3 9.9300046E-1
7.1765830E+3 1.0071154E+0
7.1775830E+3 1.0111834E+0
7.1785829E+3 1.0277515E+0
7.1795829E+3 1.0243159E+0
7.1805828E+3 1.0275130E+0
7.1815828E+3 1.0244636E+0
7.1825827E+3 1.0358461E+0
7.1835827E+3 1.0430763E+0
7.1845826E+3 1.0403686E+0
7.1855826E+3 1.0437086E+0
7.1865826E+3 1.0508855E+0
7.1875825E+3 1.0494662E+0
7.1885825E+3 1.0508910E+0
7.1895824E+3 1.0519259E+0
7.1905824E+3 1.0519358E+0
7.1915823E+3 1.0458955E+0
7.1925823E+3 1.0421923E+0
7.1935822E+3 1.0368159E+0
7.1945822E+3 1.0341237E+0
7.1955821E+3 1.0297192E+0
7.1965821E+3 1.0260361E+0
7.1975820E+3 1.0203694E+0
7.1985820E+3 1.0205419E+0
7.1995819E+3 1.0084668E+0
7.2005819E+3 9.9992655E-1
7.2015818E+3 1.0012582E+0
7.2025818E+3 1.0001246E+0
7.2035817E+3 1.0019087E+0
7.2045817E+3 9.9462275E-1
7.2055816E+3 9.9301076E-1
7.2065816E+3 9.9331615E-1
7.2075815E+3 9.9459328E-1
7.2085815E+3 9.9407220E-1
7.2095814E+3 9.9673424E-1
7.2105814E+3 9.9415515E-1
7.2126230E+3 9.9848426E-1
7.2146645E+3 9.9611564E-1
7.2167061E+3 9.9966025E-1
7.2187477E+3 1.0016742E+0
7.2207892E+3 9.9964960E-1
7.2228308E+3 9.9828513E-1
7.2248724E+3 9.9866521E-1
7.2269139E+3 9.9118614E-1
7.2289555E+3 9.8395439E-1
7.2309971E+3 9.7829883E-1
7.2330386E+3 9.7023722E-1
7.2350802E+3 9.6822698E-1
7.2371218E+3 9.6869149E-1
7.2391633E+3 9.6384899E-1
7.2412049E+3 9.6927882E-1
7.2432465E+3 9.7288768E-1
7.2452880E+3 9.7953309E-1
7.2473296E+3 9.8543225E-1
7.2493712E+3 9.9165400E-1
7.2514127E+3 9.9750440E-1
7.2534543E+3 1.0018941E+0
7.2554959E+3 1.0052591E+0
7.2575374E+3 1.0082754E+0
7.2595790E+3 1.0151104E+0
7.2600790E+3 1.0089788E+0
7.2605789E+3 1.0120328E+0
7.2610789E+3 1.0087566E+0
7.2615789E+3 1.0133532E+0
7.2620789E+3 1.0132675E+0
7.2625788E+3 1.0169312E+0
7.2630788E+3 1.0028852E+0
7.2635788E+3 1.0079995E+0
7.2640788E+3 1.0126106E+0
7.2645787E+3 1.0126609E+0
7.2650787E+3 1.0161002E+0
7.2655787E+3 1.0059580E+0
7.2660787E+3 1.0152887E+0
7.2665787E+3 1.0147069E+0
7.2670786E+3 1.0190596E+0
7.2675786E+3 1.0101543E+0
7.2680786E+3 1.0160154E+0
7.2685786E+3 1.0155822E+0
7.2690785E+3 1.0124935E+0
7.2695785E+3 1.0128743E+0
7.2745783E+3 1.0178455E+0
7.2795780E+3 1.0141563E+0
7.2845778E+3 1.0177552E+0
7.2895775E+3 1.0133503E+0
7.2945773E+3 1.0091329E+0
7.2995770E+3 1.0111801E+0
7.3045768E+3 9.9847097E-1
7.3095765E+3 9.9882450E-1
7.3145763E+3 1.0102345E+0
7.3195760E+3 1.0077121E+0
7.3245758E+3 1.0091976E+0
7.3295755E+3 1.0027937E+0
7.3345753E+3 9.9785450E-1
7.3395751E+3 1.0002569E+0
7.3445748E+3 9.9429342E-1
7.3495746E+3 9.8880530E-1
7.3545743E+3 9.8330209E-1
7.3595741E+3 9.8480952E-1
7.3645738E+3 9.9582257E-1
7.3695736E+3 9.9163965E-1
7.3745733E+3 9.9740432E-1
7.3795731E+3 9.9838715E-1
7.3845728E+3 9.9748561E-1
7.3895726E+3 9.9643666E-1
7.3945723E+3 9.9707302E-1
7.3995721E+3 1.0001701E+0
7.4045718E+3 9.9291997E-1
7.4095716E+3 9.9125863E-1
