#%Name: Ferrosilite ITFA component 0
#%Empirical formula: Fe2+MgSi2O6 / Webmineral
#%Mineral group: Orthopyroxenes, inosilicate
#%Xtal system: Orthorhombic 
#%Edge: K
#%Sample prep: powder on kapton tape
#%Beamline: ALS 10.3.2, HxV slits = 200x30 um
#%Det:  I0=N2, Fluorescence mode (Ge solid state, 7 elements)
#%Ref/notes:  Mineralogical Research Company, San Jose, CA-USA. XRD confirmed.
#%Temp: Room temp (28C)
#%Time&date: 2:04 AM 3/15/2007
#%Provider: Sirine Fakra, Matthew A. Marcus.
#%============================================================
7.0102570E+3 2.6832036E-3
7.0152563E+3 2.5779932E-3
7.0202556E+3 2.7104090E-3
7.0252548E+3 2.6390342E-3
7.0302541E+3 2.9290492E-3
7.0352534E+3 2.8454477E-3
7.0402526E+3 3.0748751E-3
7.0452519E+3 3.2689481E-3
7.0502511E+3 3.3938310E-3
7.0552504E+3 3.5336218E-3
7.0602497E+3 3.8552076E-3
7.0652489E+3 4.0585532E-3
7.0702482E+3 4.5484212E-3
7.0752475E+3 4.7026411E-3
7.0802467E+3 5.6744587E-3
7.0852460E+3 6.4411372E-3
7.0902452E+3 7.5688720E-3
7.0952445E+3 9.2234493E-3
7.0957444E+3 9.5615576E-3
7.0962443E+3 9.5983403E-3
7.0967443E+3 9.7918329E-3
7.0972442E+3 1.0204479E-2
7.0977441E+3 1.0149757E-2
7.0982440E+3 1.0395363E-2
7.0987440E+3 1.0751467E-2
7.0992439E+3 1.1002684E-2
7.0997438E+3 1.1475636E-2
7.1002437E+3 1.1418945E-2
7.1007437E+3 1.1925451E-2
7.1012436E+3 1.2587653E-2
7.1017435E+3 1.2831103E-2
7.1022434E+3 1.3320108E-2
7.1027434E+3 1.3896487E-2
7.1032433E+3 1.4222479E-2
7.1037432E+3 1.4685899E-2
7.1042432E+3 1.5156420E-2
7.1047431E+3 1.5927189E-2
7.1052430E+3 1.6591337E-2
7.1057429E+3 1.7123079E-2
7.1062429E+3 1.8187593E-2
7.1067428E+3 1.9072537E-2
7.1072427E+3 1.9845112E-2
7.1077426E+3 2.0716478E-2
7.1082426E+3 2.2147338E-2
7.1087425E+3 2.4112398E-2
7.1092424E+3 2.6292784E-2
7.1097423E+3 2.9347810E-2
7.1102423E+3 3.5489057E-2
7.1107422E+3 4.6159827E-2
7.1112421E+3 5.3824451E-2
7.1117420E+3 5.8905855E-2
7.1122420E+3 6.1071308E-2
7.1127419E+3 5.9471114E-2
7.1132418E+3 5.8081161E-2
7.1137417E+3 5.7526307E-2
7.1142417E+3 5.9167686E-2
7.1147416E+3 6.4011288E-2
7.1152415E+3 7.2644106E-2
7.1157414E+3 8.4600018E-2
7.1162414E+3 1.0445050E-1
7.1167413E+3 1.3980471E-1
7.1172412E+3 1.8802714E-1
7.1177411E+3 2.4616468E-1
7.1182411E+3 3.1136017E-1
7.1187410E+3 4.0234092E-1
7.1192409E+3 5.1740765E-1
7.1197408E+3 6.4810443E-1
7.1202408E+3 7.9227151E-1
7.1207407E+3 8.9390696E-1
7.1212406E+3 9.3769425E-1
7.1217405E+3 9.4604621E-1
7.1222405E+3 9.5442701E-1
7.1227404E+3 9.9256910E-1
7.1232403E+3 1.0506108E+0
7.1237402E+3 1.1158449E+0
7.1242402E+3 1.1858070E+0
7.1247401E+3 1.2433093E+0
7.1252400E+3 1.2737800E+0
7.1257400E+3 1.2730966E+0
7.1262399E+3 1.2585634E+0
7.1267398E+3 1.2442716E+0
7.1272397E+3 1.2354721E+0
7.1277397E+3 1.2460073E+0
7.1282396E+3 1.2871701E+0
7.1287395E+3 1.3364214E+0
7.1292394E+3 1.4012628E+0
7.1297394E+3 1.4522301E+0
7.1302393E+3 1.4644766E+0
7.1307392E+3 1.4478093E+0
7.1312391E+3 1.4046791E+0
7.1317391E+3 1.3219462E+0
7.1322390E+3 1.2429972E+0
7.1327389E+3 1.1689437E+0
7.1332388E+3 1.1102841E+0
7.1337388E+3 1.0661347E+0
7.1342387E+3 1.0352887E+0
7.1347386E+3 1.0159170E+0
7.1352385E+3 9.9858184E-1
7.1357385E+3 9.8142650E-1
7.1362384E+3 9.6056531E-1
7.1367383E+3 9.4438190E-1
7.1372382E+3 9.2823568E-1
7.1377382E+3 9.1531140E-1
7.1382381E+3 9.0452249E-1
7.1387380E+3 8.9836002E-1
7.1392379E+3 8.9393693E-1
7.1397379E+3 8.9603529E-1
7.1402378E+3 9.0908273E-1
7.1412376E+3 9.3587238E-1
7.1422375E+3 9.5553176E-1
7.1432373E+3 9.5681282E-1
7.1442372E+3 9.4858161E-1
7.1452370E+3 9.3731048E-1
7.1462369E+3 9.2536003E-1
7.1472367E+3 9.0837868E-1
7.1482366E+3 8.8933135E-1
7.1492364E+3 8.7358701E-1
7.1502363E+3 8.6501281E-1
7.1512361E+3 8.6555863E-1
7.1522360E+3 8.6723625E-1
7.1532358E+3 8.7162025E-1
7.1542357E+3 8.7834442E-1
7.1552355E+3 8.8154359E-1
7.1562354E+3 8.8638664E-1
7.1572352E+3 8.9344205E-1
7.1582351E+3 8.9988179E-1
7.1592349E+3 9.0854246E-1
7.1602348E+3 9.2067458E-1
7.1612346E+3 9.3032381E-1
7.1622345E+3 9.4242700E-1
7.1632343E+3 9.5873565E-1
7.1642342E+3 9.7629684E-1
7.1652340E+3 9.9205433E-1
7.1662339E+3 1.0066575E+0
7.1672337E+3 1.0134044E+0
7.1682336E+3 1.0189452E+0
7.1692334E+3 1.0211069E+0
7.1702333E+3 1.0272985E+0
7.1712331E+3 1.0326505E+0
7.1722330E+3 1.0329378E+0
7.1732328E+3 1.0315640E+0
7.1742327E+3 1.0306417E+0
7.1752325E+3 1.0281520E+0
7.1762324E+3 1.0219978E+0
7.1772322E+3 1.0163428E+0
7.1782321E+3 1.0128661E+0
7.1792319E+3 1.0119382E+0
7.1802318E+3 1.0120419E+0
7.1812316E+3 1.0113057E+0
7.1822315E+3 1.0126620E+0
7.1832313E+3 1.0098473E+0
7.1842312E+3 1.0117175E+0
7.1852310E+3 1.0109788E+0
7.1862309E+3 1.0061185E+0
7.1872307E+3 1.0068066E+0
7.1882306E+3 1.0055951E+0
7.1892304E+3 1.0022442E+0
7.1902303E+3 1.0055373E+0
7.1912301E+3 1.0047236E+0
7.1922300E+3 1.0070160E+0
7.1932298E+3 1.0086893E+0
7.1942297E+3 1.0137106E+0
7.1952295E+3 1.0162091E+0
7.1962294E+3 1.0127907E+0
7.1972292E+3 1.0166805E+0
7.1982291E+3 1.0179784E+0
7.1992289E+3 1.0191919E+0
7.2002288E+3 1.0126290E+0
7.2012286E+3 1.0080825E+0
7.2022285E+3 1.0036488E+0
7.2032283E+3 9.9853324E-1
7.2042282E+3 9.9524288E-1
7.2052280E+3 9.8992348E-1
7.2062279E+3 9.8508756E-1
7.2072277E+3 9.8011423E-1
7.2082276E+3 9.7710627E-1
7.2092274E+3 9.7120309E-1
7.2102273E+3 9.6603876E-1
7.2122686E+3 9.6611028E-1
7.2143100E+3 9.6715704E-1
7.2163514E+3 9.6843892E-1
7.2183927E+3 9.7017461E-1
7.2204341E+3 9.7288944E-1
7.2224754E+3 9.7152535E-1
7.2245168E+3 9.7312451E-1
7.2265581E+3 9.7181189E-1
7.2285995E+3 9.6885080E-1
7.2306409E+3 9.6773345E-1
7.2326822E+3 9.6763355E-1
7.2347236E+3 9.6894793E-1
7.2367649E+3 9.7631900E-1
7.2388063E+3 9.8127619E-1
7.2408476E+3 9.8716621E-1
7.2428890E+3 9.9457770E-1
7.2449304E+3 1.0018510E+0
7.2469717E+3 1.0086927E+0
7.2490131E+3 1.0149418E+0
7.2510544E+3 1.0167711E+0
7.2530958E+3 1.0193718E+0
7.2551371E+3 1.0152744E+0
7.2571785E+3 1.0119742E+0
7.2592199E+3 1.0135085E+0
7.2597198E+3 1.0133077E+0
7.2602197E+3 1.0133947E+0
7.2607196E+3 1.0134147E+0
7.2612196E+3 1.0132799E+0
7.2617195E+3 1.0115403E+0
7.2622194E+3 1.0119381E+0
7.2627193E+3 1.0096029E+0
7.2632193E+3 1.0121873E+0
7.2637192E+3 1.0090481E+0
7.2642191E+3 1.0098523E+0
7.2647190E+3 1.0126898E+0
7.2652189E+3 1.0141706E+0
7.2657189E+3 1.0145788E+0
7.2662188E+3 1.0136138E+0
7.2667187E+3 1.0163050E+0
7.2672186E+3 1.0144339E+0
7.2677186E+3 1.0121907E+0
7.2682185E+3 1.0130564E+0
7.2687184E+3 1.0106024E+0
7.2692183E+3 1.0079846E+0
7.2742176E+3 1.0072789E+0
7.2792168E+3 1.0048527E+0
7.2842161E+3 1.0021007E+0
7.2892153E+3 9.9355209E-1
7.2942145E+3 9.8907567E-1
7.2992138E+3 9.8259593E-1
7.3042130E+3 9.8485831E-1
7.3092122E+3 9.8525810E-1
7.3142115E+3 9.8903226E-1
7.3192107E+3 9.9512750E-1
7.3242099E+3 9.9799622E-1
7.3292092E+3 9.9885508E-1
7.3342084E+3 9.9773260E-1
7.3392076E+3 9.9635687E-1
7.3442069E+3 9.9548205E-1
7.3492061E+3 9.9671621E-1
7.3542053E+3 9.9545305E-1
7.3592046E+3 9.9463333E-1
7.3642038E+3 9.9639701E-1
7.3692030E+3 9.9889805E-1
7.3742023E+3 9.9675155E-1
7.3792015E+3 9.9502141E-1
7.3842007E+3 9.9551635E-1
7.3891999E+3 9.8923238E-1
7.3941992E+3 9.9371333E-1
7.3991984E+3 9.9536606E-1
7.4041976E+3 9.8713512E-1
7.4091968E+3 9.9263257E-1
