#%Name: Ferrosilite ITFA component 1
#%Empirical formula: Fe2+MgSi2O6 / Webmineral
#%Mineral group: Orthopyroxenes, inosilicate
#%Xtal system: Orthorhombic 
#%Edge: K
#%Sample prep: powder on kapton tape
#%Beamline: ALS 10.3.2, HxV slits = 200x30 um
#%Det:  I0=N2, Fluorescence mode (Ge solid state, 7 elements)
#%Ref/notes:  Mineralogical Research Company, San Jose, CA-USA. XRD confirmed.
#%Temp: Room temp (28C)
#%Time&date: 2:04 AM 3/15/2007
#%Provider: Sirine Fakra, Matthew A. Marcus.
#%============================================================
7.0102570E+3 1.7784588E-3
7.0152563E+3 2.1322834E-3
7.0202556E+3 2.1124159E-3
7.0252548E+3 2.0157857E-3
7.0302541E+3 2.1978668E-3
7.0352534E+3 1.9649737E-3
7.0402526E+3 2.4023391E-3
7.0452519E+3 2.3746275E-3
7.0502511E+3 2.4731635E-3
7.0552504E+3 2.8852201E-3
7.0602497E+3 3.1868075E-3
7.0652489E+3 3.6654016E-3
7.0702482E+3 4.2452212E-3
7.0752475E+3 4.6391910E-3
7.0802467E+3 5.0207866E-3
7.0852460E+3 5.7449125E-3
7.0902452E+3 7.2715158E-3
7.0952445E+3 9.1269344E-3
7.0957444E+3 8.9392473E-3
7.0962443E+3 9.5433050E-3
7.0967443E+3 9.4684867E-3
7.0972442E+3 9.5267207E-3
7.0977441E+3 1.0124104E-2
7.0982440E+3 1.0594822E-2
7.0987440E+3 1.1149095E-2
7.0992439E+3 1.0783484E-2
7.0997438E+3 1.1504681E-2
7.1002437E+3 1.1749392E-2
7.1007437E+3 1.1929096E-2
7.1012436E+3 1.2685609E-2
7.1017435E+3 1.2757452E-2
7.1022434E+3 1.3503139E-2
7.1027434E+3 1.4018623E-2
7.1032433E+3 1.4504734E-2
7.1037432E+3 1.4771362E-2
7.1042432E+3 1.5544610E-2
7.1047431E+3 1.5784630E-2
7.1052430E+3 1.6793860E-2
7.1057429E+3 1.7486133E-2
7.1062429E+3 1.8468744E-2
7.1067428E+3 1.9719648E-2
7.1072427E+3 2.0375434E-2
7.1077426E+3 2.1619536E-2
7.1082426E+3 2.3203870E-2
7.1087425E+3 2.5009882E-2
7.1092424E+3 2.7360842E-2
7.1097423E+3 3.1418862E-2
7.1102423E+3 3.8987515E-2
7.1107422E+3 4.8524434E-2
7.1112421E+3 5.5816691E-2
7.1117420E+3 5.9312727E-2
7.1122420E+3 6.4145516E-2
7.1127419E+3 7.0501334E-2
7.1132418E+3 6.8634693E-2
7.1137417E+3 6.1745985E-2
7.1142417E+3 6.0961839E-2
7.1147416E+3 6.6290806E-2
7.1152415E+3 7.5117187E-2
7.1157414E+3 8.8443328E-2
7.1162414E+3 1.0907925E-1
7.1167413E+3 1.4696088E-1
7.1172412E+3 1.9966212E-1
7.1177411E+3 2.7829038E-1
7.1182411E+3 3.7057875E-1
7.1187410E+3 4.9991092E-1
7.1192409E+3 6.7916906E-1
7.1197408E+3 8.4549818E-1
7.1202408E+3 1.0272272E+0
7.1207407E+3 1.1584596E+0
7.1212406E+3 1.2117098E+0
7.1217405E+3 1.2412939E+0
7.1222405E+3 1.2760251E+0
7.1227404E+3 1.3220232E+0
7.1232403E+3 1.3610059E+0
7.1237402E+3 1.3762291E+0
7.1242402E+3 1.3685959E+0
7.1247401E+3 1.3608597E+0
7.1252400E+3 1.3493399E+0
7.1257400E+3 1.3236923E+0
7.1262399E+3 1.2855078E+0
7.1267398E+3 1.2071465E+0
7.1272397E+3 1.1412408E+0
7.1277397E+3 1.1013456E+0
7.1282396E+3 1.1015594E+0
7.1287395E+3 1.1448973E+0
7.1292394E+3 1.2093720E+0
7.1297394E+3 1.2778737E+0
7.1302393E+3 1.3180433E+0
7.1307392E+3 1.3192998E+0
7.1312391E+3 1.2960125E+0
7.1317391E+3 1.2597176E+0
7.1322390E+3 1.2069059E+0
7.1327389E+3 1.1563940E+0
7.1332388E+3 1.1197036E+0
7.1337388E+3 1.0773354E+0
7.1342387E+3 1.0346288E+0
7.1347386E+3 1.0180430E+0
7.1352385E+3 9.9838846E-1
7.1357385E+3 9.9199533E-1
7.1362384E+3 9.7964973E-1
7.1367383E+3 9.6675923E-1
7.1372382E+3 9.5593431E-1
7.1377382E+3 9.5436978E-1
7.1382381E+3 9.4512361E-1
7.1387380E+3 9.3602126E-1
7.1392379E+3 9.2711582E-1
7.1397379E+3 9.1436061E-1
7.1402378E+3 9.1230381E-1
7.1412376E+3 9.2217916E-1
7.1422375E+3 9.3649561E-1
7.1432373E+3 9.4086144E-1
7.1442372E+3 9.4674580E-1
7.1452370E+3 9.6173550E-1
7.1462369E+3 9.6647055E-1
7.1472367E+3 9.7361980E-1
7.1482366E+3 9.6595843E-1
7.1492364E+3 9.5805325E-1
7.1502363E+3 9.3876588E-1
7.1512361E+3 9.2873142E-1
7.1522360E+3 9.1375693E-1
7.1532358E+3 9.0599096E-1
7.1542357E+3 9.0047847E-1
7.1552355E+3 9.0216902E-1
7.1562354E+3 9.0680828E-1
7.1572352E+3 9.2054856E-1
7.1582351E+3 9.3040591E-1
7.1592349E+3 9.4396525E-1
7.1602348E+3 9.5318114E-1
7.1612346E+3 9.7066778E-1
7.1622345E+3 9.7963468E-1
7.1632343E+3 9.9526322E-1
7.1642342E+3 1.0004864E+0
7.1652340E+3 1.0128998E+0
7.1662339E+3 1.0105316E+0
7.1672337E+3 1.0160427E+0
7.1682336E+3 1.0148222E+0
7.1692334E+3 1.0190620E+0
7.1702333E+3 1.0184946E+0
7.1712331E+3 1.0216493E+0
7.1722330E+3 1.0250535E+0
7.1732328E+3 1.0291189E+0
7.1742327E+3 1.0261617E+0
7.1752325E+3 1.0314117E+0
7.1762324E+3 1.0377740E+0
7.1772322E+3 1.0457096E+0
7.1782321E+3 1.0540611E+0
7.1792319E+3 1.0562942E+0
7.1802318E+3 1.0616082E+0
7.1812316E+3 1.0625831E+0
7.1822315E+3 1.0628636E+0
7.1832313E+3 1.0638040E+0
7.1842312E+3 1.0600641E+0
7.1852310E+3 1.0546186E+0
7.1862309E+3 1.0482017E+0
7.1872307E+3 1.0393222E+0
7.1882306E+3 1.0253986E+0
7.1892304E+3 1.0171646E+0
7.1902303E+3 1.0068919E+0
7.1912301E+3 9.9839476E-1
7.1922300E+3 9.9258355E-1
7.1932298E+3 9.9432036E-1
7.1942297E+3 9.8859089E-1
7.1952295E+3 9.8767922E-1
7.1962294E+3 9.8725475E-1
7.1972292E+3 9.8493962E-1
7.1982291E+3 9.8740968E-1
7.1992289E+3 9.8738744E-1
7.2002288E+3 9.8870957E-1
7.2012286E+3 9.8871248E-1
7.2022285E+3 9.8327616E-1
7.2032283E+3 9.8406486E-1
7.2042282E+3 9.8237123E-1
7.2052280E+3 9.8182114E-1
7.2062279E+3 9.8534158E-1
7.2072277E+3 9.8724958E-1
7.2082276E+3 9.8754692E-1
7.2092274E+3 9.9257281E-1
7.2102273E+3 9.9889582E-1
7.2122686E+3 1.0018540E+0
7.2143100E+3 1.0060978E+0
7.2163514E+3 1.0088097E+0
7.2183927E+3 1.0148007E+0
7.2204341E+3 1.0085771E+0
7.2224754E+3 1.0148731E+0
7.2245168E+3 1.0097548E+0
7.2265581E+3 1.0018443E+0
7.2285995E+3 9.9694221E-1
7.2306409E+3 9.8650608E-1
7.2326822E+3 9.8496191E-1
7.2347236E+3 9.8300492E-1
7.2367649E+3 9.8665481E-1
7.2388063E+3 9.8485697E-1
7.2408476E+3 9.9435561E-1
7.2428890E+3 1.0006069E+0
7.2449304E+3 1.0035393E+0
7.2469717E+3 1.0109550E+0
7.2490131E+3 1.0160038E+0
7.2510544E+3 1.0180993E+0
7.2530958E+3 1.0192708E+0
7.2551371E+3 1.0240134E+0
7.2571785E+3 1.0236791E+0
7.2592199E+3 1.0217227E+0
7.2597198E+3 1.0279247E+0
7.2602197E+3 1.0259896E+0
7.2607196E+3 1.0235889E+0
7.2612196E+3 1.0257241E+0
7.2617195E+3 1.0275126E+0
7.2622194E+3 1.0292159E+0
7.2627193E+3 1.0297334E+0
7.2632193E+3 1.0252128E+0
7.2637192E+3 1.0235674E+0
7.2642191E+3 1.0273434E+0
7.2647190E+3 1.0279787E+0
7.2652189E+3 1.0255597E+0
7.2657189E+3 1.0304775E+0
7.2662188E+3 1.0313781E+0
7.2667187E+3 1.0284106E+0
7.2672186E+3 1.0240793E+0
7.2677186E+3 1.0241735E+0
7.2682185E+3 1.0316252E+0
7.2687184E+3 1.0239228E+0
7.2692183E+3 1.0218159E+0
7.2742176E+3 1.0203800E+0
7.2792168E+3 1.0114960E+0
7.2842161E+3 1.0042203E+0
7.2892153E+3 9.9934406E-1
7.2942145E+3 9.8910329E-1
7.2992138E+3 9.8868734E-1
7.3042130E+3 9.8878336E-1
7.3092122E+3 9.8877603E-1
7.3142115E+3 9.9789885E-1
7.3192107E+3 1.0006923E+0
7.3242099E+3 1.0029385E+0
7.3292092E+3 1.0083647E+0
7.3342084E+3 1.0099832E+0
7.3392076E+3 9.9764686E-1
7.3442069E+3 9.9423638E-1
7.3492061E+3 9.9321056E-1
7.3542053E+3 9.9599849E-1
7.3592046E+3 9.9566463E-1
7.3642038E+3 9.8982666E-1
7.3692030E+3 9.9434025E-1
7.3742023E+3 9.9546220E-1
7.3792015E+3 9.9810424E-1
7.3842007E+3 9.9849323E-1
7.3891999E+3 9.9443905E-1
7.3941992E+3 9.9867686E-1
7.3991984E+3 9.9132404E-1
7.4041976E+3 9.8755502E-1
7.4091968E+3 9.9341271E-1
