#%Name: Haxonite ITFA component 0
#%Empirical formula: Fe0+20Ni3C6 /webmineral
#%Mineral group: metal
#%Xtal system: cubic 
#%Edge: K
#%Sample prep: polished section 
#%Beamline: ALS 10.3.2, HxV slits = 50x20 um
#%Det:  I0=N2, Fluorescence mode (Ge solid state 7elts)
#%Ref/notes:  Excalibur Minerals Corp, N.Y., USA. XRD confirmed.
#%Temp: Room temp (28C)
#%Time&date: 8:30 PM 4/6/2007
#%Provider: Sirine Fakra, Matthew A. Marcus.
#%============================================================
7.0161043E+3 2.2697424E-3
7.0211048E+3 2.4612424E-3
7.0261054E+3 2.5254739E-3
7.0311059E+3 2.4518606E-3
7.0361064E+3 2.6527655E-3
7.0411070E+3 2.8310593E-3
7.0461075E+3 3.0408888E-3
7.0511080E+3 3.3774468E-3
7.0561085E+3 3.6054134E-3
7.0611091E+3 3.9345029E-3
7.0661096E+3 4.3841864E-3
7.0711101E+3 5.0085480E-3
7.0761107E+3 5.6487268E-3
7.0811112E+3 6.5288211E-3
7.0861117E+3 7.8817877E-3
7.0911123E+3 1.0080454E-2
7.0961128E+3 1.2564024E-2
7.0966128E+3 1.3029548E-2
7.0971129E+3 1.3114808E-2
7.0976130E+3 1.3865538E-2
7.0981130E+3 1.4024737E-2
7.0986131E+3 1.4512552E-2
7.0991131E+3 1.5168025E-2
7.0996132E+3 1.5568758E-2
7.1001132E+3 1.6272892E-2
7.1006133E+3 1.6498738E-2
7.1011133E+3 1.7200986E-2
7.1016134E+3 1.8049117E-2
7.1021134E+3 1.8545510E-2
7.1026135E+3 1.9894651E-2
7.1031135E+3 2.0818196E-2
7.1036136E+3 2.1580400E-2
7.1041136E+3 2.2660939E-2
7.1046137E+3 2.4048329E-2
7.1051138E+3 2.6049679E-2
7.1056138E+3 2.7440432E-2
7.1061139E+3 2.9722055E-2
7.1066139E+3 3.1954287E-2
7.1071140E+3 3.4908475E-2
7.1076140E+3 3.8052601E-2
7.1081141E+3 4.3043652E-2
7.1086141E+3 5.0628730E-2
7.1091142E+3 5.9890223E-2
7.1096142E+3 7.5961913E-2
7.1101143E+3 1.0303707E-1
7.1106143E+3 1.4699418E-1
7.1111144E+3 2.1072083E-1
7.1116144E+3 2.6375050E-1
7.1121145E+3 2.9746625E-1
7.1126146E+3 3.2427016E-1
7.1131146E+3 3.4951834E-1
7.1136147E+3 3.6743010E-1
7.1141147E+3 3.8248971E-1
7.1146148E+3 3.9633185E-1
7.1151148E+3 4.0704159E-1
7.1156149E+3 4.1847571E-1
7.1161149E+3 4.2679171E-1
7.1166150E+3 4.4017642E-1
7.1171150E+3 4.5936225E-1
7.1176151E+3 4.8529515E-1
7.1181151E+3 5.1237703E-1
7.1186152E+3 5.4246793E-1
7.1191152E+3 5.7362717E-1
7.1196153E+3 6.0538523E-1
7.1201154E+3 6.4256216E-1
7.1206154E+3 6.7532756E-1
7.1211155E+3 7.1277659E-1
7.1216155E+3 7.4439407E-1
7.1221156E+3 7.7542562E-1
7.1226156E+3 8.0168096E-1
7.1231157E+3 8.3149467E-1
7.1236157E+3 8.5683765E-1
7.1241158E+3 8.8537293E-1
7.1246158E+3 9.0878570E-1
7.1251159E+3 9.3437121E-1
7.1256159E+3 9.6096719E-1
7.1261160E+3 9.8461967E-1
7.1266161E+3 1.0041427E+0
7.1271161E+3 1.0199323E+0
7.1276162E+3 1.0328556E+0
7.1281162E+3 1.0435347E+0
7.1286163E+3 1.0496997E+0
7.1291163E+3 1.0527205E+0
7.1296164E+3 1.0605478E+0
7.1301164E+3 1.0599709E+0
7.1306165E+3 1.0614975E+0
7.1311165E+3 1.0607708E+0
7.1316166E+3 1.0529195E+0
7.1321166E+3 1.0474897E+0
7.1326167E+3 1.0393772E+0
7.1331167E+3 1.0324987E+0
7.1336168E+3 1.0277023E+0
7.1341169E+3 1.0210828E+0
7.1346169E+3 1.0162646E+0
7.1351170E+3 1.0125734E+0
7.1356170E+3 1.0092705E+0
7.1361171E+3 1.0073686E+0
7.1366171E+3 1.0044900E+0
7.1371172E+3 1.0039364E+0
7.1376172E+3 1.0009386E+0
7.1381173E+3 1.0008572E+0
7.1386173E+3 1.0032965E+0
7.1391174E+3 1.0015911E+0
7.1396174E+3 1.0021336E+0
7.1401175E+3 1.0029606E+0
7.1406176E+3 1.0039572E+0
7.1411176E+3 1.0041733E+0
7.1421177E+3 1.0015143E+0
7.1431178E+3 9.9831983E-1
7.1441179E+3 9.9863439E-1
7.1451180E+3 9.9949095E-1
7.1461181E+3 1.0000676E+0
7.1471182E+3 1.0032688E+0
7.1481184E+3 1.0009953E+0
7.1491185E+3 1.0002685E+0
7.1501186E+3 1.0004288E+0
7.1511187E+3 9.9611207E-1
7.1521188E+3 9.9775537E-1
7.1531189E+3 9.9727818E-1
7.1541190E+3 9.9954943E-1
7.1551191E+3 9.9927653E-1
7.1561192E+3 1.0023240E+0
7.1571193E+3 1.0038426E+0
7.1581194E+3 1.0056263E+0
7.1591195E+3 1.0084190E+0
7.1601196E+3 1.0102210E+0
7.1611198E+3 1.0069276E+0
7.1621199E+3 1.0064921E+0
7.1631200E+3 1.0028588E+0
7.1641201E+3 9.9905607E-1
7.1651202E+3 9.9492853E-1
7.1661203E+3 9.8838993E-1
7.1671204E+3 9.8727452E-1
7.1681205E+3 9.8447113E-1
7.1691206E+3 9.8114455E-1
7.1701207E+3 9.7889401E-1
7.1711208E+3 9.8015948E-1
7.1721209E+3 9.8058032E-1
7.1731210E+3 9.7792807E-1
7.1741212E+3 9.7938374E-1
7.1751213E+3 9.8126710E-1
7.1761214E+3 9.8205048E-1
7.1771215E+3 9.8106607E-1
7.1781216E+3 9.8199580E-1
7.1791217E+3 9.8391937E-1
7.1801218E+3 9.8710230E-1
7.1811219E+3 9.8626363E-1
7.1821220E+3 9.8722653E-1
7.1831221E+3 9.8994484E-1
7.1841222E+3 9.9132604E-1
7.1851223E+3 9.9531917E-1
7.1861224E+3 9.9775787E-1
7.1871226E+3 1.0007888E+0
7.1881227E+3 1.0035812E+0
7.1891228E+3 1.0059952E+0
7.1901229E+3 1.0090308E+0
7.1911230E+3 1.0117549E+0
7.1921231E+3 1.0150695E+0
7.1931232E+3 1.0171448E+0
7.1941233E+3 1.0183425E+0
7.1951234E+3 1.0188097E+0
7.1961235E+3 1.0170147E+0
7.1971236E+3 1.0168098E+0
7.1981237E+3 1.0143292E+0
7.1991238E+3 1.0137689E+0
7.2001240E+3 1.0116672E+0
7.2011241E+3 1.0105437E+0
7.2021242E+3 1.0065649E+0
7.2031243E+3 1.0064423E+0
7.2041244E+3 1.0045588E+0
7.2051245E+3 1.0049518E+0
7.2061246E+3 1.0037922E+0
7.2071247E+3 1.0034008E+0
7.2081248E+3 1.0065625E+0
7.2091249E+3 1.0079652E+0
7.2101250E+3 1.0092046E+0
7.2111251E+3 1.0146938E+0
7.2131670E+3 1.0218594E+0
7.2152089E+3 1.0312907E+0
7.2172508E+3 1.0366660E+0
7.2192927E+3 1.0369574E+0
7.2213346E+3 1.0336186E+0
7.2233765E+3 1.0260785E+0
7.2254184E+3 1.0162160E+0
7.2274603E+3 1.0075009E+0
7.2295021E+3 9.9565689E-1
7.2315440E+3 9.8618919E-1
7.2335859E+3 9.7699420E-1
7.2356278E+3 9.7174853E-1
7.2376697E+3 9.6858122E-1
7.2397116E+3 9.6926812E-1
7.2417535E+3 9.7246277E-1
7.2437954E+3 9.7526507E-1
7.2458372E+3 9.8194366E-1
7.2478791E+3 9.8788225E-1
7.2499210E+3 9.9126944E-1
7.2519629E+3 9.9183724E-1
7.2540048E+3 9.9342388E-1
7.2560467E+3 9.9324569E-1
7.2580886E+3 9.9783020E-1
7.2601305E+3 1.0036714E+0
7.2606305E+3 1.0018504E+0
7.2611306E+3 1.0033094E+0
7.2616306E+3 1.0057810E+0
7.2621307E+3 1.0067919E+0
7.2626307E+3 1.0080045E+0
7.2631308E+3 1.0078730E+0
7.2636309E+3 1.0076847E+0
7.2641309E+3 1.0108677E+0
7.2646310E+3 1.0113256E+0
7.2651310E+3 1.0137530E+0
7.2656311E+3 1.0158632E+0
7.2661311E+3 1.0152182E+0
7.2666312E+3 1.0166663E+0
7.2671312E+3 1.0189961E+0
7.2676313E+3 1.0190438E+0
7.2681313E+3 1.0205780E+0
7.2686314E+3 1.0193350E+0
7.2691315E+3 1.0217912E+0
7.2696315E+3 1.0221769E+0
7.2701316E+3 1.0236802E+0
7.2751321E+3 1.0335772E+0
7.2801327E+3 1.0349075E+0
7.2851332E+3 1.0318457E+0
7.2901337E+3 1.0214882E+0
7.2951343E+3 1.0018691E+0
7.3001348E+3 9.9089170E-1
7.3051354E+3 9.8358492E-1
7.3101359E+3 9.8398079E-1
7.3151365E+3 9.9059124E-1
7.3201370E+3 9.9390394E-1
7.3251376E+3 9.9514366E-1
7.3301381E+3 9.9621485E-1
7.3351387E+3 9.9416274E-1
7.3401392E+3 9.9593821E-1
7.3451398E+3 1.0004176E+0
7.3501403E+3 1.0096234E+0
7.3551409E+3 1.0172541E+0
7.3601414E+3 1.0226948E+0
7.3651420E+3 1.0201136E+0
7.3701426E+3 1.0137163E+0
7.3751431E+3 1.0055364E+0
7.3801437E+3 9.9562602E-1
7.3851442E+3 9.8901498E-1
7.3901448E+3 9.8696207E-1
7.3951453E+3 9.8804770E-1
7.4001459E+3 9.8719492E-1
7.4051464E+3 9.8735522E-1
7.4101470E+3 9.9295847E-1
