#%Name: Haxonite ITFA component 1
#%Empirical formula: Fe0+20Ni3C6 /webmineral
#%Mineral group: metal
#%Xtal system: cubic 
#%Edge: K
#%Sample prep: polished section
#%Beamline: ALS 10.3.2, HxV slits = 50x20 um
#%Det:  I0=N2, Fluorescence mode (Ge solid state 7elts)
#%Ref/notes:  Excalibur Minerals Corp, N.Y., USA. XRD confirmed.
#%Temp: Room temp (28C)
#%Time&date: 8:30 PM 4/6/2007
#%Provider: Sirine Fakra, Matthew A. Marcus.
#%============================================================
7.0161043E+3 1.9858504E-3
7.0211048E+3 1.9607183E-3
7.0261054E+3 2.1199059E-3
7.0311059E+3 2.4126594E-3
7.0361064E+3 2.3871826E-3
7.0411070E+3 2.6184178E-3
7.0461075E+3 2.7770382E-3
7.0511080E+3 2.8629087E-3
7.0561085E+3 3.3095365E-3
7.0611091E+3 3.6187976E-3
7.0661096E+3 3.7232619E-3
7.0711101E+3 4.3171309E-3
7.0761107E+3 5.2589028E-3
7.0811112E+3 5.6941184E-3
7.0861117E+3 7.2590938E-3
7.0911123E+3 8.1402739E-3
7.0961128E+3 1.1244497E-2
7.0966128E+3 1.1255029E-2
7.0971129E+3 1.1479239E-2
7.0976130E+3 1.1916964E-2
7.0981130E+3 1.2278361E-2
7.0986131E+3 1.2035208E-2
7.0991131E+3 1.2522472E-2
7.0996132E+3 1.2892268E-2
7.1001132E+3 1.3238198E-2
7.1006133E+3 1.4178407E-2
7.1011133E+3 1.4752901E-2
7.1016134E+3 1.5336439E-2
7.1021134E+3 1.5757289E-2
7.1026135E+3 1.6064000E-2
7.1031135E+3 1.6562638E-2
7.1036136E+3 1.7633815E-2
7.1041136E+3 1.8273326E-2
7.1046137E+3 1.9483919E-2
7.1051138E+3 2.0458190E-2
7.1056138E+3 2.2211400E-2
7.1061139E+3 2.2957965E-2
7.1066139E+3 2.5568287E-2
7.1071140E+3 2.6898102E-2
7.1076140E+3 2.9180612E-2
7.1081141E+3 3.2843685E-2
7.1086141E+3 3.7289306E-2
7.1091142E+3 4.3428806E-2
7.1096142E+3 5.2256337E-2
7.1101143E+3 6.7270123E-2
7.1106143E+3 9.5365378E-2
7.1111144E+3 1.3155177E-1
7.1116144E+3 1.7180554E-1
7.1121145E+3 2.0491897E-1
7.1126146E+3 2.3831025E-1
7.1131146E+3 2.6799520E-1
7.1136147E+3 2.8311704E-1
7.1141147E+3 2.8960587E-1
7.1146148E+3 2.9415230E-1
7.1151148E+3 2.9687779E-1
7.1156149E+3 3.0297609E-1
7.1161149E+3 3.0903892E-1
7.1166150E+3 3.1584619E-1
7.1171150E+3 3.3056710E-1
7.1176151E+3 3.5026097E-1
7.1181151E+3 3.7306749E-1
7.1186152E+3 3.9972232E-1
7.1191152E+3 4.2781995E-1
7.1196153E+3 4.6648978E-1
7.1201154E+3 5.0324048E-1
7.1206154E+3 5.3810327E-1
7.1211155E+3 5.7631976E-1
7.1216155E+3 6.1968759E-1
7.1221156E+3 6.5205696E-1
7.1226156E+3 6.9724634E-1
7.1231157E+3 7.3442354E-1
7.1236157E+3 7.7122141E-1
7.1241158E+3 8.0846915E-1
7.1246158E+3 8.4144963E-1
7.1251159E+3 8.7587323E-1
7.1256159E+3 9.1261441E-1
7.1261160E+3 9.4254960E-1
7.1266161E+3 9.7296989E-1
7.1271161E+3 1.0043465E+0
7.1276162E+3 1.0314744E+0
7.1281162E+3 1.0563463E+0
7.1286163E+3 1.0781346E+0
7.1291163E+3 1.1039120E+0
7.1296164E+3 1.1185536E+0
7.1301164E+3 1.1329485E+0
7.1306165E+3 1.1411348E+0
7.1311165E+3 1.1467943E+0
7.1316166E+3 1.1475000E+0
7.1321166E+3 1.1442189E+0
7.1326167E+3 1.1401860E+0
7.1331167E+3 1.1270259E+0
7.1336168E+3 1.1153354E+0
7.1341169E+3 1.1042005E+0
7.1346169E+3 1.0916972E+0
7.1351170E+3 1.0834236E+0
7.1356170E+3 1.0762833E+0
7.1361171E+3 1.0722781E+0
7.1366171E+3 1.0681434E+0
7.1371172E+3 1.0632716E+0
7.1376172E+3 1.0596744E+0
7.1381173E+3 1.0561215E+0
7.1386173E+3 1.0492684E+0
7.1391174E+3 1.0484686E+0
7.1396174E+3 1.0457036E+0
7.1401175E+3 1.0394074E+0
7.1406176E+3 1.0358167E+0
7.1411176E+3 1.0271176E+0
7.1421177E+3 1.0218486E+0
7.1431178E+3 1.0165513E+0
7.1441179E+3 1.0140547E+0
7.1451180E+3 1.0137537E+0
7.1461181E+3 1.0172734E+0
7.1471182E+3 1.0105954E+0
7.1481184E+3 1.0048881E+0
7.1491185E+3 9.9306532E-1
7.1501186E+3 9.8329601E-1
7.1511187E+3 9.8137671E-1
7.1521188E+3 9.7721663E-1
7.1531189E+3 9.7439991E-1
7.1541190E+3 9.7326977E-1
7.1551191E+3 9.7267741E-1
7.1561192E+3 9.7058686E-1
7.1571193E+3 9.6860007E-1
7.1581194E+3 9.7089679E-1
7.1591195E+3 9.6232521E-1
7.1601196E+3 9.6391973E-1
7.1611198E+3 9.6569511E-1
7.1621199E+3 9.6072829E-1
7.1631200E+3 9.6383412E-1
7.1641201E+3 9.6207805E-1
7.1651202E+3 9.5946461E-1
7.1661203E+3 9.6187515E-1
7.1671204E+3 9.5835356E-1
7.1681205E+3 9.6241233E-1
7.1691206E+3 9.6565272E-1
7.1701207E+3 9.6771706E-1
7.1711208E+3 9.6900129E-1
7.1721209E+3 9.7192180E-1
7.1731210E+3 9.7818240E-1
7.1741212E+3 9.8021515E-1
7.1751213E+3 9.8417890E-1
7.1761214E+3 9.8772362E-1
7.1771215E+3 9.8900186E-1
7.1781216E+3 9.9039109E-1
7.1791217E+3 9.9154303E-1
7.1801218E+3 9.9589450E-1
7.1811219E+3 9.9882742E-1
7.1821220E+3 1.0019516E+0
7.1831221E+3 1.0060648E+0
7.1841222E+3 1.0056667E+0
7.1851223E+3 1.0063105E+0
7.1861224E+3 1.0099882E+0
7.1871226E+3 1.0105199E+0
7.1881227E+3 1.0116936E+0
7.1891228E+3 1.0152516E+0
7.1901229E+3 1.0191830E+0
7.1911230E+3 1.0168547E+0
7.1921231E+3 1.0206605E+0
7.1931232E+3 1.0185584E+0
7.1941233E+3 1.0192136E+0
7.1951234E+3 1.0187055E+0
7.1961235E+3 1.0203664E+0
7.1971236E+3 1.0180005E+0
7.1981237E+3 1.0156026E+0
7.1991238E+3 1.0126585E+0
7.2001240E+3 1.0122726E+0
7.2011241E+3 1.0107433E+0
7.2021242E+3 1.0068163E+0
7.2031243E+3 1.0071075E+0
7.2041244E+3 1.0039902E+0
7.2051245E+3 1.0019195E+0
7.2061246E+3 1.0026096E+0
7.2071247E+3 1.0015795E+0
7.2081248E+3 1.0042055E+0
7.2091249E+3 1.0043242E+0
7.2101250E+3 1.0069986E+0
7.2111251E+3 1.0086891E+0
7.2131670E+3 1.0166872E+0
7.2152089E+3 1.0188563E+0
7.2172508E+3 1.0249856E+0
7.2192927E+3 1.0278165E+0
7.2213346E+3 1.0255339E+0
7.2233765E+3 1.0243230E+0
7.2254184E+3 1.0182933E+0
7.2274603E+3 1.0066251E+0
7.2295021E+3 9.9727564E-1
7.2315440E+3 9.8547873E-1
7.2335859E+3 9.7618436E-1
7.2356278E+3 9.6962433E-1
7.2376697E+3 9.6593494E-1
7.2397116E+3 9.6706014E-1
7.2417535E+3 9.6600763E-1
7.2437954E+3 9.7079501E-1
7.2458372E+3 9.7319644E-1
7.2478791E+3 9.7633485E-1
7.2499210E+3 9.7679029E-1
7.2519629E+3 9.8141647E-1
7.2540048E+3 9.8303667E-1
7.2560467E+3 9.8466953E-1
7.2580886E+3 9.8923840E-1
7.2601305E+3 9.9413035E-1
7.2606305E+3 1.0021731E+0
7.2611306E+3 1.0001691E+0
7.2616306E+3 1.0023263E+0
7.2621307E+3 1.0053730E+0
7.2626307E+3 1.0080400E+0
7.2631308E+3 1.0094267E+0
7.2636309E+3 1.0149792E+0
7.2641309E+3 1.0186540E+0
7.2646310E+3 1.0156604E+0
7.2651310E+3 1.0156255E+0
7.2656311E+3 1.0184059E+0
7.2661311E+3 1.0198510E+0
7.2666312E+3 1.0197040E+0
7.2671312E+3 1.0222117E+0
7.2676313E+3 1.0227913E+0
7.2681313E+3 1.0226999E+0
7.2686314E+3 1.0290677E+0
7.2691315E+3 1.0259857E+0
7.2696315E+3 1.0296845E+0
7.2701316E+3 1.0292290E+0
7.2751321E+3 1.0381752E+0
7.2801327E+3 1.0390995E+0
7.2851332E+3 1.0326255E+0
7.2901337E+3 1.0148609E+0
7.2951343E+3 9.8993685E-1
7.3001348E+3 9.7712262E-1
7.3051354E+3 9.7701294E-1
7.3101359E+3 9.8198775E-1
7.3151365E+3 9.8592652E-1
7.3201370E+3 9.9225869E-1
7.3251376E+3 9.9748516E-1
7.3301381E+3 9.9492225E-1
7.3351387E+3 9.9475404E-1
7.3401392E+3 9.9294696E-1
7.3451398E+3 1.0009661E+0
7.3501403E+3 1.0096544E+0
7.3551409E+3 1.0151212E+0
7.3601414E+3 1.0166662E+0
7.3651420E+3 1.0147749E+0
7.3701426E+3 1.0114379E+0
7.3751431E+3 9.9578997E-1
7.3801437E+3 9.8947049E-1
7.3851442E+3 9.8587590E-1
7.3901448E+3 9.8474375E-1
7.3951453E+3 9.8780637E-1
7.4001459E+3 9.9171119E-1
7.4051464E+3 9.9413813E-1
7.4101470E+3 9.8779444E-1
