#%Name: Hypersthene ITFA component 2
#%Empirical formula: MgFe2+Si2O6 / Webmineral
#%Mineral group: pyroxenes, inosilicate
#%Xtal system: Orthorhombic  
#%Edge: K
#%Sample prep: powder on kapton tape
#%Beamline: ALS 10.3.2, HxV slits = 50x20 um
#%Det:  I0=N2, Fluorescence mode (Ge solid state 7elts)
#%Ref/notes:  Mineralogical Research Company, San Jose, CA-USA. XRD confirmed.
#%Temp: Room temp (28C)
#%Time&date: 2:01 PM 1/13/2007
#%Provider: Sirine Fakra, Matthew A. Marcus.
#%============================================================
7.0108250E+3 1.9956527E-3
7.0158252E+3 1.9832807E-3
7.0208253E+3 1.7976827E-3
7.0258254E+3 1.9769640E-3
7.0308255E+3 2.1793198E-3
7.0358256E+3 2.1413518E-3
7.0408257E+3 2.1808393E-3
7.0458258E+3 2.4157660E-3
7.0508259E+3 2.7845251E-3
7.0558261E+3 2.7601129E-3
7.0608262E+3 3.0669614E-3
7.0658263E+3 3.6137856E-3
7.0708264E+3 3.8928619E-3
7.0758265E+3 4.4750727E-3
7.0808266E+3 5.2392618E-3
7.0858267E+3 5.8620099E-3
7.0908268E+3 7.5860460E-3
7.0958270E+3 9.3922316E-3
7.0963270E+3 9.5906068E-3
7.0968270E+3 9.6803851E-3
7.0973270E+3 9.8700764E-3
7.0978270E+3 1.0397249E-2
7.0983270E+3 1.0820756E-2
7.0988270E+3 1.1317974E-2
7.0993270E+3 1.1058966E-2
7.0998271E+3 1.1857327E-2
7.1003271E+3 1.2156573E-2
7.1008271E+3 1.2403673E-2
7.1013271E+3 1.2703509E-2
7.1018271E+3 1.2935614E-2
7.1023271E+3 1.3424192E-2
7.1028271E+3 1.4133291E-2
7.1033271E+3 1.4255472E-2
7.1038271E+3 1.5376527E-2
7.1043272E+3 1.5970197E-2
7.1048272E+3 1.6276674E-2
7.1053272E+3 1.7393245E-2
7.1058272E+3 1.7977022E-2
7.1063272E+3 1.8565110E-2
7.1068272E+3 1.9846232E-2
7.1073272E+3 2.0711031E-2
7.1078272E+3 2.2108078E-2
7.1083272E+3 2.4107313E-2
7.1088273E+3 2.5861146E-2
7.1093273E+3 2.8421809E-2
7.1098273E+3 3.2492213E-2
7.1103273E+3 3.8530173E-2
7.1108273E+3 4.7648683E-2
7.1113273E+3 5.8199578E-2
7.1118273E+3 6.5087443E-2
7.1123273E+3 6.2453535E-2
7.1128273E+3 5.8984979E-2
7.1133274E+3 5.7546731E-2
7.1138274E+3 5.9604107E-2
7.1143274E+3 6.5973698E-2
7.1148274E+3 7.5688935E-2
7.1153274E+3 9.1202870E-2
7.1158274E+3 1.1740625E-1
7.1163274E+3 1.6514747E-1
7.1168274E+3 2.4075367E-1
7.1173274E+3 3.2136845E-1
7.1178275E+3 3.9130698E-1
7.1183275E+3 4.6761052E-1
7.1188275E+3 5.7248619E-1
7.1193275E+3 6.9452123E-1
7.1198275E+3 8.1575581E-1
7.1203275E+3 9.4848105E-1
7.1208275E+3 1.0512186E+0
7.1213275E+3 1.0994474E+0
7.1218275E+3 1.1384052E+0
7.1223276E+3 1.1900847E+0
7.1228276E+3 1.2606150E+0
7.1233276E+3 1.3701314E+0
7.1238276E+3 1.4684051E+0
7.1243276E+3 1.5282306E+0
7.1248276E+3 1.5564147E+0
7.1253276E+3 1.5313863E+0
7.1258276E+3 1.4832672E+0
7.1263277E+3 1.4231803E+0
7.1268277E+3 1.3659298E+0
7.1273277E+3 1.3180578E+0
7.1278277E+3 1.2936696E+0
7.1283277E+3 1.2860806E+0
7.1288277E+3 1.2948716E+0
7.1293277E+3 1.2986485E+0
7.1298277E+3 1.3033387E+0
7.1303277E+3 1.3043081E+0
7.1308278E+3 1.2817346E+0
7.1313278E+3 1.2315028E+0
7.1318278E+3 1.1930834E+0
7.1323278E+3 1.1465440E+0
7.1328278E+3 1.1050924E+0
7.1333278E+3 1.0730878E+0
7.1338278E+3 1.0277132E+0
7.1343278E+3 9.8767575E-1
7.1348278E+3 9.6106500E-1
7.1353279E+3 9.4697003E-1
7.1358279E+3 9.3030477E-1
7.1363279E+3 9.1776892E-1
7.1368279E+3 9.0973208E-1
7.1373279E+3 9.0691916E-1
7.1378279E+3 8.9576027E-1
7.1383279E+3 8.8781636E-1
7.1388279E+3 8.8069091E-1
7.1393279E+3 8.7850073E-1
7.1398280E+3 8.7753201E-1
7.1403280E+3 8.8155017E-1
7.1408280E+3 8.8858855E-1
7.1418280E+3 9.0125887E-1
7.1428280E+3 9.0588172E-1
7.1438280E+3 9.1110281E-1
7.1448281E+3 9.0613307E-1
7.1458281E+3 9.0428580E-1
7.1468281E+3 9.0794852E-1
7.1478281E+3 9.1052996E-1
7.1488282E+3 9.0936114E-1
7.1498282E+3 9.0990580E-1
7.1508282E+3 9.1215327E-1
7.1518282E+3 9.2691756E-1
7.1528283E+3 9.2431021E-1
7.1538283E+3 9.2996196E-1
7.1548283E+3 9.4344132E-1
7.1558283E+3 9.5587775E-1
7.1568283E+3 9.6082739E-1
7.1578284E+3 9.6849296E-1
7.1588284E+3 9.7683708E-1
7.1598284E+3 9.7907370E-1
7.1608284E+3 9.9297656E-1
7.1618285E+3 1.0055385E+0
7.1628285E+3 1.0157717E+0
7.1638285E+3 1.0268309E+0
7.1648285E+3 1.0326526E+0
7.1658285E+3 1.0410001E+0
7.1668286E+3 1.0453082E+0
7.1678286E+3 1.0464168E+0
7.1688286E+3 1.0510450E+0
7.1698286E+3 1.0605737E+0
7.1708287E+3 1.0646983E+0
7.1718287E+3 1.0619346E+0
7.1728287E+3 1.0610648E+0
7.1738287E+3 1.0567261E+0
7.1748288E+3 1.0525891E+0
7.1758288E+3 1.0429167E+0
7.1768288E+3 1.0353723E+0
7.1778288E+3 1.0343144E+0
7.1788288E+3 1.0260797E+0
7.1798289E+3 1.0159331E+0
7.1808289E+3 1.0151272E+0
7.1818289E+3 1.0086334E+0
7.1828289E+3 1.0077867E+0
7.1838290E+3 1.0122921E+0
7.1848290E+3 1.0095878E+0
7.1858290E+3 1.0018891E+0
7.1868290E+3 1.0020529E+0
7.1878291E+3 1.0068583E+0
7.1888291E+3 1.0005173E+0
7.1898291E+3 9.8923773E-1
7.1908291E+3 9.8787883E-1
7.1918291E+3 9.9072688E-1
7.1928292E+3 9.8995272E-1
7.1938292E+3 9.9238985E-1
7.1948292E+3 9.8837473E-1
7.1958292E+3 9.8919271E-1
7.1968293E+3 9.9141768E-1
7.1978293E+3 9.9512059E-1
7.1988293E+3 9.9514680E-1
7.1998293E+3 9.9893837E-1
7.2008294E+3 9.9273118E-1
7.2018294E+3 9.9378048E-1
7.2028294E+3 9.9078425E-1
7.2038294E+3 9.9257286E-1
7.2048294E+3 9.9276995E-1
7.2058295E+3 9.8669870E-1
7.2068295E+3 9.8607020E-1
7.2078295E+3 9.8530122E-1
7.2088295E+3 9.8643681E-1
7.2098296E+3 9.7969514E-1
7.2108296E+3 9.8222030E-1
7.2128296E+3 9.8987622E-1
7.2148297E+3 9.8804717E-1
7.2168297E+3 9.9386410E-1
7.2188298E+3 9.9247524E-1
7.2208298E+3 9.8570662E-1
7.2228299E+3 9.8729484E-1
7.2248299E+3 9.8247603E-1
7.2268299E+3 9.8312783E-1
7.2288300E+3 9.8619065E-1
7.2308300E+3 9.9675495E-1
7.2328301E+3 9.9115864E-1
7.2348301E+3 9.9149711E-1
7.2368302E+3 9.8511555E-1
7.2388302E+3 1.0033350E+0
7.2408303E+3 1.0179124E+0
7.2428303E+3 1.0226418E+0
7.2448304E+3 1.0257134E+0
7.2468304E+3 1.0288366E+0
7.2488305E+3 1.0250560E+0
7.2508305E+3 1.0263631E+0
7.2528305E+3 1.0202710E+0
7.2548306E+3 1.0145913E+0
7.2553306E+3 1.0150169E+0
7.2558306E+3 1.0113398E+0
7.2563306E+3 1.0126294E+0
7.2568306E+3 1.0161344E+0
7.2573307E+3 1.0106629E+0
7.2578307E+3 1.0063211E+0
7.2583307E+3 1.0108339E+0
7.2588307E+3 1.0056073E+0
7.2593307E+3 1.0074921E+0
7.2598307E+3 1.0114596E+0
7.2603307E+3 1.0024649E+0
7.2608307E+3 9.9930466E-1
7.2613307E+3 1.0088584E+0
7.2618308E+3 1.0119908E+0
7.2623308E+3 1.0113693E+0
7.2628308E+3 1.0129805E+0
7.2633308E+3 1.0077110E+0
7.2638308E+3 9.9888481E-1
7.2643308E+3 1.0029223E+0
7.2648308E+3 1.0142647E+0
7.2653308E+3 1.0168742E+0
7.2658308E+3 1.0119032E+0
7.2663309E+3 1.0116694E+0
7.2668309E+3 1.0099636E+0
7.2673309E+3 1.0106328E+0
7.2678309E+3 1.0079996E+0
7.2683309E+3 1.0094316E+0
7.2688309E+3 1.0110976E+0
7.2693309E+3 1.0046643E+0
7.2698309E+3 1.0055191E+0
7.2703310E+3 9.9960558E-1
7.2708310E+3 9.9645549E-1
7.2713310E+3 1.0064999E+0
7.2718310E+3 1.0040004E+0
7.2723310E+3 1.0007461E+0
7.2728310E+3 9.9971954E-1
7.2733310E+3 9.9885714E-1
7.2738310E+3 9.9579339E-1
7.2743310E+3 9.9897897E-1
7.2748311E+3 9.9720069E-1
7.2798312E+3 9.9163486E-1
7.2848313E+3 9.8840332E-1
7.2898314E+3 9.8993391E-1
7.2948315E+3 9.8631404E-1
7.2998316E+3 9.7932583E-1
7.3048318E+3 9.8135318E-1
7.3098319E+3 9.8989135E-1
7.3148320E+3 9.8234851E-1
7.3198321E+3 9.8572457E-1
7.3248322E+3 9.8783587E-1
7.3298323E+3 9.9350587E-1
7.3348325E+3 9.8667119E-1
7.3398326E+3 9.9695211E-1
7.3448327E+3 9.9570200E-1
7.3498328E+3 9.9838259E-1
7.3548329E+3 9.9933811E-1
7.3598330E+3 9.9421132E-1
7.3648332E+3 1.0031620E+0
7.3698333E+3 9.9914815E-1
7.3748334E+3 9.9383619E-1
7.3798335E+3 9.8840150E-1
7.3848336E+3 9.9126453E-1
7.3898337E+3 9.9885791E-1
7.3948339E+3 9.9972372E-1
7.3998340E+3 1.0005195E+0
7.4048341E+3 9.9965660E-1
7.4098342E+3 1.0002551E+0
