#%Name: Hypersthene ITFA component 0
#%Empirical formula: MgFe2+Si2O6 / Webmineral
#%Mineral group: pyroxenes, inosilicate
#%Xtal system: Orthorhombic  
#%Edge: K
#%Sample prep: powder on kapton tape
#%Beamline: ALS 10.3.2, HxV slits = 50x20 um
#%Det:  I0=N2, Fluorescence mode (Ge solid state 7elts)
#%Ref/notes:  Mineralogical Research Company, San Jose, CA-USA. XRD confirmed.
#%Temp: Room temp (28C)
#%Time&date: 2:01 PM 1/13/2007
#%Provider: Sirine Fakra, Matthew A. Marcus.
#%============================================================
7.0108250E+3 1.4294176E-3
7.0158252E+3 1.4992362E-3
7.0208253E+3 1.8199102E-3
7.0258254E+3 1.5827083E-3
7.0308255E+3 1.9280388E-3
7.0358256E+3 1.8566039E-3
7.0408257E+3 1.9799239E-3
7.0458258E+3 2.1588850E-3
7.0508259E+3 2.0637604E-3
7.0558261E+3 2.2176825E-3
7.0608262E+3 2.4614668E-3
7.0658263E+3 2.9475918E-3
7.0708264E+3 3.3480782E-3
7.0758265E+3 4.0606078E-3
7.0808266E+3 4.1575456E-3
7.0858267E+3 5.3234515E-3
7.0908268E+3 5.9383632E-3
7.0958270E+3 8.0881490E-3
7.0963270E+3 8.0829450E-3
7.0968270E+3 8.4417841E-3
7.0973270E+3 8.6218312E-3
7.0978270E+3 8.8133624E-3
7.0983270E+3 9.3435797E-3
7.0988270E+3 9.1707174E-3
7.0993270E+3 9.6768393E-3
7.0998271E+3 9.9794168E-3
7.1003271E+3 1.0224383E-2
7.1008271E+3 1.0525356E-2
7.1013271E+3 1.0911388E-2
7.1018271E+3 1.1082767E-2
7.1023271E+3 1.1637570E-2
7.1028271E+3 1.2309824E-2
7.1033271E+3 1.3264400E-2
7.1038271E+3 1.3317260E-2
7.1043272E+3 1.3660072E-2
7.1048272E+3 1.4692333E-2
7.1053272E+3 1.5024750E-2
7.1058272E+3 1.5647084E-2
7.1063272E+3 1.6960824E-2
7.1068272E+3 1.7756778E-2
7.1073272E+3 1.9130888E-2
7.1078272E+3 2.0118304E-2
7.1083272E+3 2.1658770E-2
7.1088273E+3 2.3778594E-2
7.1093273E+3 2.6137963E-2
7.1098273E+3 3.0962439E-2
7.1103273E+3 4.0340041E-2
7.1108273E+3 5.0626565E-2
7.1113273E+3 5.6632447E-2
7.1118273E+3 5.7622078E-2
7.1123273E+3 5.6221351E-2
7.1128273E+3 5.3645017E-2
7.1133274E+3 5.2067977E-2
7.1138274E+3 5.2439773E-2
7.1143274E+3 5.4916672E-2
7.1148274E+3 6.0981200E-2
7.1153274E+3 7.2301861E-2
7.1158274E+3 8.8228897E-2
7.1163274E+3 1.1308976E-1
7.1168274E+3 1.5941779E-1
7.1173274E+3 2.1065717E-1
7.1178275E+3 2.7350085E-1
7.1183275E+3 3.6099262E-1
7.1188275E+3 4.6381645E-1
7.1193275E+3 6.1536381E-1
7.1198275E+3 7.6989548E-1
7.1203275E+3 8.9088100E-1
7.1208275E+3 9.6966896E-1
7.1213275E+3 9.8912357E-1
7.1218275E+3 9.9853032E-1
7.1223276E+3 1.0394577E+0
7.1228276E+3 1.1013296E+0
7.1233276E+3 1.1781392E+0
7.1238276E+3 1.2537167E+0
7.1243276E+3 1.3142120E+0
7.1248276E+3 1.3571442E+0
7.1253276E+3 1.3716147E+0
7.1258276E+3 1.3492674E+0
7.1263277E+3 1.3189834E+0
7.1268277E+3 1.2961113E+0
7.1273277E+3 1.2856315E+0
7.1278277E+3 1.3093890E+0
7.1283277E+3 1.3696364E+0
7.1288277E+3 1.4407072E+0
7.1293277E+3 1.5155604E+0
7.1298277E+3 1.5594375E+0
7.1303277E+3 1.5559681E+0
7.1308278E+3 1.5115605E+0
7.1313278E+3 1.4383612E+0
7.1318278E+3 1.3455054E+0
7.1323278E+3 1.2506245E+0
7.1328278E+3 1.1750123E+0
7.1333278E+3 1.1154835E+0
7.1338278E+3 1.0730149E+0
7.1343278E+3 1.0472876E+0
7.1348278E+3 1.0263828E+0
7.1353279E+3 1.0029928E+0
7.1358279E+3 9.8017092E-1
7.1363279E+3 9.6395286E-1
7.1368279E+3 9.4933336E-1
7.1373279E+3 9.2664435E-1
7.1378279E+3 9.1755413E-1
7.1383279E+3 9.1206677E-1
7.1388279E+3 9.0533108E-1
7.1393279E+3 9.0984543E-1
7.1398280E+3 9.1799718E-1
7.1403280E+3 9.3331823E-1
7.1408280E+3 9.4669638E-1
7.1418280E+3 9.6287174E-1
7.1428280E+3 9.6853624E-1
7.1438280E+3 9.6074579E-1
7.1448281E+3 9.5296395E-1
7.1458281E+3 9.4282104E-1
7.1468281E+3 9.2330362E-1
7.1478281E+3 9.0232372E-1
7.1488282E+3 8.8369831E-1
7.1498282E+3 8.7422775E-1
7.1508282E+3 8.7180384E-1
7.1518282E+3 8.7382059E-1
7.1528283E+3 8.7691596E-1
7.1538283E+3 8.8375985E-1
7.1548283E+3 8.8890685E-1
7.1558283E+3 8.9035410E-1
7.1568283E+3 9.0086512E-1
7.1578284E+3 9.1080178E-1
7.1588284E+3 9.1879579E-1
7.1598284E+3 9.3280986E-1
7.1608284E+3 9.4073910E-1
7.1618285E+3 9.5429794E-1
7.1628285E+3 9.7177090E-1
7.1638285E+3 9.9279044E-1
7.1648285E+3 1.0138948E+0
7.1658285E+3 1.0257656E+0
7.1668286E+3 1.0347194E+0
7.1678286E+3 1.0402304E+0
7.1688286E+3 1.0460542E+0
7.1698286E+3 1.0479326E+0
7.1708287E+3 1.0538767E+0
7.1718287E+3 1.0533112E+0
7.1728287E+3 1.0561204E+0
7.1738287E+3 1.0525026E+0
7.1748288E+3 1.0479108E+0
7.1758288E+3 1.0419710E+0
7.1768288E+3 1.0399910E+0
7.1778288E+3 1.0332759E+0
7.1788288E+3 1.0344908E+0
7.1798289E+3 1.0377156E+0
7.1808289E+3 1.0385314E+0
7.1818289E+3 1.0436827E+0
7.1828289E+3 1.0390310E+0
7.1838290E+3 1.0373903E+0
7.1848290E+3 1.0351731E+0
7.1858290E+3 1.0310564E+0
7.1868290E+3 1.0307961E+0
7.1878291E+3 1.0246893E+0
7.1888291E+3 1.0213104E+0
7.1898291E+3 1.0220852E+0
7.1908291E+3 1.0204815E+0
7.1918291E+3 1.0189934E+0
7.1928292E+3 1.0225416E+0
7.1938292E+3 1.0273266E+0
7.1948292E+3 1.0270621E+0
7.1958292E+3 1.0283168E+0
7.1968293E+3 1.0314812E+0
7.1978293E+3 1.0293338E+0
7.1988293E+3 1.0290388E+0
7.1998293E+3 1.0265052E+0
7.2008294E+3 1.0254856E+0
7.2018294E+3 1.0223880E+0
7.2028294E+3 1.0087567E+0
7.2038294E+3 1.0014735E+0
7.2048294E+3 1.0005932E+0
7.2058295E+3 9.9475185E-1
7.2068295E+3 9.9074516E-1
7.2078295E+3 9.8582416E-1
7.2088295E+3 9.8162495E-1
7.2098296E+3 9.8345245E-1
7.2108296E+3 9.8202799E-1
7.2128296E+3 9.7985535E-1
7.2148297E+3 9.8165898E-1
7.2168297E+3 9.8278968E-1
7.2188298E+3 9.8117828E-1
7.2208298E+3 9.8587972E-1
7.2228299E+3 9.8908384E-1
7.2248299E+3 9.8853994E-1
7.2268299E+3 9.8643908E-1
7.2288300E+3 9.8058674E-1
7.2308300E+3 9.7171516E-1
7.2328301E+3 9.7889527E-1
7.2348301E+3 9.7995539E-1
7.2368302E+3 9.9035889E-1
7.2388302E+3 9.9006700E-1
7.2408303E+3 9.9671152E-1
7.2428303E+3 1.0076958E+0
7.2448304E+3 1.0124382E+0
7.2468304E+3 1.0200257E+0
7.2488305E+3 1.0321328E+0
7.2508305E+3 1.0302873E+0
7.2528305E+3 1.0357240E+0
7.2548306E+3 1.0315552E+0
7.2553306E+3 1.0288974E+0
7.2558306E+3 1.0295472E+0
7.2563306E+3 1.0274073E+0
7.2568306E+3 1.0284052E+0
7.2573307E+3 1.0299496E+0
7.2578307E+3 1.0262983E+0
7.2583307E+3 1.0247273E+0
7.2588307E+3 1.0247672E+0
7.2593307E+3 1.0231265E+0
7.2598307E+3 1.0225185E+0
7.2603307E+3 1.0232787E+0
7.2608307E+3 1.0211795E+0
7.2613307E+3 1.0241433E+0
7.2618308E+3 1.0270039E+0
7.2623308E+3 1.0260520E+0
7.2628308E+3 1.0286156E+0
7.2633308E+3 1.0220214E+0
7.2638308E+3 1.0173848E+0
7.2643308E+3 1.0241357E+0
7.2648308E+3 1.0279495E+0
7.2653308E+3 1.0188850E+0
7.2658308E+3 1.0221469E+0
7.2663309E+3 1.0224231E+0
7.2668309E+3 1.0228338E+0
7.2673309E+3 1.0204186E+0
7.2678309E+3 1.0208591E+0
7.2683309E+3 1.0207818E+0
7.2688309E+3 1.0214438E+0
7.2693309E+3 1.0233587E+0
7.2698309E+3 1.0243762E+0
7.2703310E+3 1.0265534E+0
7.2708310E+3 1.0240706E+0
7.2713310E+3 1.0180190E+0
7.2718310E+3 1.0164356E+0
7.2723310E+3 1.0182286E+0
7.2728310E+3 1.0167208E+0
7.2733310E+3 1.0151679E+0
7.2738310E+3 1.0201473E+0
7.2743310E+3 1.0167625E+0
7.2748311E+3 1.0133495E+0
7.2798312E+3 1.0071923E+0
7.2848313E+3 1.0078217E+0
7.2898314E+3 9.9570699E-1
7.2948315E+3 9.9108599E-1
7.2998316E+3 9.9070995E-1
7.3048318E+3 9.9034450E-1
7.3098319E+3 9.9064703E-1
7.3148320E+3 1.0039130E+0
7.3198321E+3 9.9927587E-1
7.3248322E+3 1.0009110E+0
7.3298323E+3 1.0049263E+0
7.3348325E+3 1.0112721E+0
7.3398326E+3 1.0021496E+0
7.3448327E+3 1.0002398E+0
7.3498328E+3 9.9808386E-1
7.3548329E+3 1.0008621E+0
7.3598330E+3 1.0002876E+0
7.3648332E+3 9.9708617E-1
7.3698333E+3 9.9558364E-1
7.3748334E+3 9.9989361E-1
7.3798335E+3 1.0019465E+0
7.3848336E+3 1.0000449E+0
7.3898337E+3 1.0013144E+0
7.3948339E+3 1.0005887E+0
7.3998340E+3 1.0009336E+0
7.4048341E+3 9.9458094E-1
7.4098342E+3 9.9451290E-1
