#%Name: Hypersthene ITFA component 1
#%Empirical formula: MgFe2+Si2O6 / Webmineral
#%Mineral group: pyroxenes, inosilicate
#%Xtal system: Orthorhombic  
#%Edge: K
#%Sample prep: powder on kapton tape
#%Beamline: ALS 10.3.2, HxV slits = 50x20 um
#%Det:  I0=N2, Fluorescence mode (Ge solid state 7elts)
#%Ref/notes:  Mineralogical Research Company, San Jose, CA-USA. XRD confirmed.
#%Temp: Room temp (28C)
#%Time&date: 2:01 PM 1/13/2007
#%Provider: Sirine Fakra, Matthew A. Marcus.
#%============================================================
7.0108250E+3 1.6430176E-3
7.0158252E+3 1.6486846E-3
7.0208253E+3 1.8030787E-3
7.0258254E+3 1.9179728E-3
7.0308255E+3 1.9023128E-3
7.0358256E+3 2.0104163E-3
7.0408257E+3 2.1122945E-3
7.0458258E+3 2.2911777E-3
7.0508259E+3 2.2677076E-3
7.0558261E+3 2.7614098E-3
7.0608262E+3 3.1464283E-3
7.0658263E+3 3.2552403E-3
7.0708264E+3 3.7248492E-3
7.0758265E+3 4.0596510E-3
7.0808266E+3 5.0568230E-3
7.0858267E+3 5.8859248E-3
7.0908268E+3 7.3837341E-3
7.0958270E+3 8.9231311E-3
7.0963270E+3 9.2486711E-3
7.0968270E+3 9.5378525E-3
7.0973270E+3 9.7537820E-3
7.0978270E+3 9.9181327E-3
7.0983270E+3 1.0126310E-2
7.0988270E+3 1.0335610E-2
7.0993270E+3 1.0702031E-2
7.0998271E+3 1.0920778E-2
7.1003271E+3 1.0929681E-2
7.1008271E+3 1.1404060E-2
7.1013271E+3 1.2194618E-2
7.1018271E+3 1.2694929E-2
7.1023271E+3 1.2877754E-2
7.1028271E+3 1.3605954E-2
7.1033271E+3 1.3908103E-2
7.1038271E+3 1.4344258E-2
7.1043272E+3 1.4857878E-2
7.1048272E+3 1.5647297E-2
7.1053272E+3 1.6348682E-2
7.1058272E+3 1.7154213E-2
7.1063272E+3 1.8075389E-2
7.1068272E+3 1.8849714E-2
7.1073272E+3 2.0170125E-2
7.1078272E+3 2.1569985E-2
7.1083272E+3 2.2565395E-2
7.1088273E+3 2.4764996E-2
7.1093273E+3 2.8462780E-2
7.1098273E+3 3.3366503E-2
7.1103273E+3 4.2099436E-2
7.1108273E+3 5.2216235E-2
7.1113273E+3 5.5612480E-2
7.1118273E+3 5.7437970E-2
7.1123273E+3 6.5171660E-2
7.1128273E+3 6.9126574E-2
7.1133274E+3 6.3566887E-2
7.1138274E+3 5.8605031E-2
7.1143274E+3 5.8341079E-2
7.1148274E+3 6.1885039E-2
7.1153274E+3 6.9164864E-2
7.1158274E+3 7.8155504E-2
7.1163274E+3 9.2758765E-2
7.1168274E+3 1.1571427E-1
7.1173274E+3 1.5602455E-1
7.1178275E+3 2.3593384E-1
7.1183275E+3 3.5449458E-1
7.1188275E+3 5.2380517E-1
7.1193275E+3 7.2000478E-1
7.1198275E+3 9.1573875E-1
7.1203275E+3 1.0901659E+0
7.1208275E+3 1.2019002E+0
7.1213275E+3 1.2368249E+0
7.1218275E+3 1.2516030E+0
7.1223276E+3 1.2878996E+0
7.1228276E+3 1.3268009E+0
7.1233276E+3 1.3303111E+0
7.1238276E+3 1.3193124E+0
7.1243276E+3 1.3128401E+0
7.1248276E+3 1.3032177E+0
7.1253276E+3 1.2980845E+0
7.1258276E+3 1.2747638E+0
7.1263277E+3 1.2162197E+0
7.1268277E+3 1.1386298E+0
7.1273277E+3 1.0807828E+0
7.1278277E+3 1.0628108E+0
7.1283277E+3 1.0853096E+0
7.1288277E+3 1.1536294E+0
7.1293277E+3 1.2515761E+0
7.1298277E+3 1.3491802E+0
7.1303277E+3 1.4018500E+0
7.1308278E+3 1.4095376E+0
7.1313278E+3 1.3804018E+0
7.1318278E+3 1.3188289E+0
7.1323278E+3 1.2445357E+0
7.1328278E+3 1.1792678E+0
7.1333278E+3 1.1269288E+0
7.1338278E+3 1.0934102E+0
7.1343278E+3 1.0652793E+0
7.1348278E+3 1.0483832E+0
7.1353279E+3 1.0322870E+0
7.1358279E+3 1.0194364E+0
7.1363279E+3 1.0085905E+0
7.1368279E+3 9.9420248E-1
7.1373279E+3 9.8237529E-1
7.1378279E+3 9.7020385E-1
7.1383279E+3 9.5614729E-1
7.1388279E+3 9.4474920E-1
7.1393279E+3 9.2773242E-1
7.1398280E+3 9.1766765E-1
7.1403280E+3 9.1909698E-1
7.1408280E+3 9.2662645E-1
7.1418280E+3 9.4431761E-1
7.1428280E+3 9.5303576E-1
7.1438280E+3 9.5603779E-1
7.1448281E+3 9.6997562E-1
7.1458281E+3 9.7947605E-1
7.1468281E+3 9.8559330E-1
7.1478281E+3 9.7502587E-1
7.1488282E+3 9.6068584E-1
7.1498282E+3 9.3868032E-1
7.1508282E+3 9.1951205E-1
7.1518282E+3 9.0347058E-1
7.1528283E+3 8.9021868E-1
7.1538283E+3 8.8055910E-1
7.1548283E+3 8.7682217E-1
7.1558283E+3 8.8236331E-1
7.1568283E+3 8.9214981E-1
7.1578284E+3 9.0012849E-1
7.1588284E+3 9.1712578E-1
7.1598284E+3 9.3171165E-1
7.1608284E+3 9.5116230E-1
7.1618285E+3 9.6492766E-1
7.1628285E+3 9.7645746E-1
7.1638285E+3 9.8927468E-1
7.1648285E+3 9.9806859E-1
7.1658285E+3 1.0056024E+0
7.1668286E+3 1.0051597E+0
7.1678286E+3 1.0065349E+0
7.1688286E+3 1.0073434E+0
7.1698286E+3 1.0005569E+0
7.1708287E+3 1.0064493E+0
7.1718287E+3 1.0114055E+0
7.1728287E+3 1.0077688E+0
7.1738287E+3 1.0091776E+0
7.1748288E+3 1.0115908E+0
7.1758288E+3 1.0192438E+0
7.1768288E+3 1.0290428E+0
7.1778288E+3 1.0355812E+0
7.1788288E+3 1.0441688E+0
7.1798289E+3 1.0563449E+0
7.1808289E+3 1.0650419E+0
7.1818289E+3 1.0654137E+0
7.1828289E+3 1.0675707E+0
7.1838290E+3 1.0679090E+0
7.1848290E+3 1.0644554E+0
7.1858290E+3 1.0668111E+0
7.1868290E+3 1.0558888E+0
7.1878291E+3 1.0446520E+0
7.1888291E+3 1.0338625E+0
7.1898291E+3 1.0174335E+0
7.1908291E+3 1.0034508E+0
7.1918291E+3 9.9959076E-1
7.1928292E+3 9.8996918E-1
7.1938292E+3 9.8531016E-1
7.1948292E+3 9.8283798E-1
7.1958292E+3 9.8017946E-1
7.1968293E+3 9.7844385E-1
7.1978293E+3 9.8167673E-1
7.1988293E+3 9.8053936E-1
7.1998293E+3 9.8001228E-1
7.2008294E+3 9.8016507E-1
7.2018294E+3 9.7913634E-1
7.2028294E+3 9.7701200E-1
7.2038294E+3 9.7952551E-1
7.2048294E+3 9.7444566E-1
7.2058295E+3 9.7344189E-1
7.2068295E+3 9.7258920E-1
7.2078295E+3 9.7412609E-1
7.2088295E+3 9.7403751E-1
7.2098296E+3 9.7979007E-1
7.2108296E+3 9.8403918E-1
7.2128296E+3 9.9025807E-1
7.2148297E+3 9.9768586E-1
7.2168297E+3 9.9734721E-1
7.2188298E+3 1.0056961E+0
7.2208298E+3 1.0064500E+0
7.2228299E+3 1.0047003E+0
7.2248299E+3 9.9936217E-1
7.2268299E+3 9.8989644E-1
7.2288300E+3 9.8391422E-1
7.2308300E+3 9.7507982E-1
7.2328301E+3 9.7122943E-1
7.2348301E+3 9.7370537E-1
7.2368302E+3 9.7894183E-1
7.2388302E+3 9.7633935E-1
7.2408303E+3 9.7618776E-1
7.2428303E+3 9.7958642E-1
7.2448304E+3 9.9078285E-1
7.2468304E+3 1.0007178E+0
7.2488305E+3 1.0051745E+0
7.2508305E+3 1.0124302E+0
7.2528305E+3 1.0149350E+0
7.2548306E+3 1.0197138E+0
7.2553306E+3 1.0198674E+0
7.2558306E+3 1.0208099E+0
7.2563306E+3 1.0216114E+0
7.2568306E+3 1.0191150E+0
7.2573307E+3 1.0204424E+0
7.2578307E+3 1.0263227E+0
7.2583307E+3 1.0217452E+0
7.2588307E+3 1.0223858E+0
7.2593307E+3 1.0228489E+0
7.2598307E+3 1.0185522E+0
7.2603307E+3 1.0227026E+0
7.2608307E+3 1.0256398E+0
7.2613307E+3 1.0257162E+0
7.2618308E+3 1.0234358E+0
7.2623308E+3 1.0185118E+0
7.2628308E+3 1.0220101E+0
7.2633308E+3 1.0249678E+0
7.2638308E+3 1.0189921E+0
7.2643308E+3 1.0219329E+0
7.2648308E+3 1.0185189E+0
7.2653308E+3 1.0189348E+0
7.2658308E+3 1.0186706E+0
7.2663309E+3 1.0176623E+0
7.2668309E+3 1.0159497E+0
7.2673309E+3 1.0180627E+0
7.2678309E+3 1.0176691E+0
7.2683309E+3 1.0147326E+0
7.2688309E+3 1.0068945E+0
7.2693309E+3 1.0091281E+0
7.2698309E+3 1.0077977E+0
7.2703310E+3 1.0098827E+0
7.2708310E+3 1.0118417E+0
7.2713310E+3 1.0043223E+0
7.2718310E+3 1.0011596E+0
7.2723310E+3 1.0049263E+0
7.2728310E+3 1.0031544E+0
7.2733310E+3 1.0042622E+0
7.2738310E+3 1.0016015E+0
7.2743310E+3 1.0033010E+0
7.2748311E+3 1.0099560E+0
7.2798312E+3 9.9938944E-1
7.2848313E+3 9.9283009E-1
7.2898314E+3 9.8771638E-1
7.2948315E+3 9.8938972E-1
7.2998316E+3 9.8131701E-1
7.3048318E+3 9.8009986E-1
7.3098319E+3 9.8763053E-1
7.3148320E+3 9.9167060E-1
7.3198321E+3 1.0002114E+0
7.3248322E+3 1.0001501E+0
7.3298323E+3 9.9974951E-1
7.3348325E+3 9.9841863E-1
7.3398326E+3 9.9159413E-1
7.3448327E+3 9.9692171E-1
7.3498328E+3 9.9487987E-1
7.3548329E+3 9.8790410E-1
7.3598330E+3 9.8964485E-1
7.3648332E+3 9.8760845E-1
7.3698333E+3 9.9266655E-1
7.3748334E+3 9.9745046E-1
7.3798335E+3 9.9536755E-1
7.3848336E+3 9.9595494E-1
7.3898337E+3 9.9404765E-1
7.3948339E+3 9.9423306E-1
7.3998340E+3 9.9168831E-1
7.4048341E+3 9.9577989E-1
7.4098342E+3 9.8622778E-1
