#%Name: Troilite ITFA component 1
#%Empirical formula: Fe2+S / Webmineral
#%Mineral group: sulfides  
#%Xtal system: Hexagonal    
#%Edge: K
#%Sample prep: powder on kapton tape
#%Beamline: ALS 10.3.2, HxV slits = 100x30 um
#%Det:  I0=N2, Fluorescence mode (Ge solid state 7elts)
#%Ref/notes:  Mineralogical Research Company, San Jose, CA-USA. XRD confirmed.
#%Temp: Room temp (28C)
#%Time&date: 10:57 PM 3/15/2007
#%Provider: Sirine Fakra, Matthew A. Marcus.
#%============================================================
7.0146707E+3 6.9135174E-4
7.0196691E+3 1.9740149E-3
7.0246675E+3 -8.2020339E-5
7.0296658E+3 2.1551652E-3
7.0346642E+3 2.5883371E-3
7.0396626E+3 3.2633550E-3
7.0446610E+3 1.8837376E-3
7.0496594E+3 2.4797396E-3
7.0546578E+3 1.7879421E-3
7.0596562E+3 3.7134292E-3
7.0646546E+3 3.5093321E-3
7.0696529E+3 3.5236796E-3
7.0746513E+3 3.4103651E-3
7.0796497E+3 4.2507726E-3
7.0846481E+3 4.5885511E-3
7.0896465E+3 6.9732015E-3
7.0946448E+3 8.1933995E-3
7.0951447E+3 8.7596643E-3
7.0956445E+3 1.0217469E-2
7.0961444E+3 9.0924227E-3
7.0966442E+3 9.5523759E-3
7.0971440E+3 1.0413329E-2
7.0976439E+3 9.8320962E-3
7.0981437E+3 1.0984183E-2
7.0986435E+3 9.2399035E-3
7.0991434E+3 1.0341893E-2
7.0996432E+3 1.0878187E-2
7.1001431E+3 1.2657696E-2
7.1006429E+3 1.3948394E-2
7.1011427E+3 1.2615241E-2
7.1016426E+3 1.3135144E-2
7.1021424E+3 1.4395905E-2
7.1026422E+3 1.5669651E-2
7.1031421E+3 1.6021186E-2
7.1036419E+3 1.5295171E-2
7.1041418E+3 1.6351667E-2
7.1046416E+3 1.6455653E-2
7.1051414E+3 1.8267791E-2
7.1056413E+3 1.9587633E-2
7.1061411E+3 2.1646611E-2
7.1066409E+3 2.0822821E-2
7.1071408E+3 2.3517626E-2
7.1076406E+3 2.5426086E-2
7.1081405E+3 2.7580217E-2
7.1086403E+3 3.1110478E-2
7.1091401E+3 3.4621171E-2
7.1096400E+3 4.1338452E-2
7.1101398E+3 5.0914459E-2
7.1106396E+3 6.6435649E-2
7.1111395E+3 8.7019341E-2
7.1116393E+3 1.0602135E-1
7.1121392E+3 1.1859592E-1
7.1126390E+3 1.2582565E-1
7.1131388E+3 1.3324769E-1
7.1136387E+3 1.4653180E-1
7.1141385E+3 1.6952279E-1
7.1146383E+3 2.0657623E-1
7.1151382E+3 2.4963624E-1
7.1156380E+3 3.0837886E-1
7.1161379E+3 3.7745029E-1
7.1166377E+3 4.4650493E-1
7.1171375E+3 5.1088558E-1
7.1176374E+3 5.7459857E-1
7.1181372E+3 6.3870836E-1
7.1186370E+3 7.0068400E-1
7.1191369E+3 7.4736394E-1
7.1196367E+3 7.9181688E-1
7.1201366E+3 8.1883892E-1
7.1206364E+3 8.3936760E-1
7.1211362E+3 8.5335368E-1
7.1216361E+3 8.6365839E-1
7.1221359E+3 8.7235022E-1
7.1226357E+3 8.8668992E-1
7.1231356E+3 9.0733296E-1
7.1236354E+3 9.2412356E-1
7.1241352E+3 9.4047583E-1
7.1246351E+3 9.5854351E-1
7.1251349E+3 9.7405769E-1
7.1256348E+3 9.9093265E-1
7.1261346E+3 1.0058884E+0
7.1266344E+3 1.0189868E+0
7.1271343E+3 1.0353149E+0
7.1276341E+3 1.0473352E+0
7.1281339E+3 1.0555995E+0
7.1286338E+3 1.0664122E+0
7.1291336E+3 1.0770811E+0
7.1296335E+3 1.0841684E+0
7.1301333E+3 1.0873566E+0
7.1306331E+3 1.0888894E+0
7.1311330E+3 1.0875904E+0
7.1316328E+3 1.0855136E+0
7.1321326E+3 1.0846084E+0
7.1326325E+3 1.0853570E+0
7.1331323E+3 1.0838067E+0
7.1336321E+3 1.0816370E+0
7.1341320E+3 1.0747516E+0
7.1346318E+3 1.0715898E+0
7.1351317E+3 1.0706808E+0
7.1356315E+3 1.0677120E+0
7.1361313E+3 1.0683462E+0
7.1366312E+3 1.0646611E+0
7.1371310E+3 1.0643183E+0
7.1376308E+3 1.0593919E+0
7.1381307E+3 1.0566461E+0
7.1386305E+3 1.0520559E+0
7.1391304E+3 1.0463218E+0
7.1396302E+3 1.0414161E+0
7.1406299E+3 1.0360058E+0
7.1416295E+3 1.0310125E+0
7.1426292E+3 1.0227549E+0
7.1436289E+3 1.0179964E+0
7.1446286E+3 1.0129715E+0
7.1456282E+3 1.0097481E+0
7.1466279E+3 1.0046662E+0
7.1476276E+3 9.9771207E-1
7.1486272E+3 9.8897331E-1
7.1496269E+3 9.7908989E-1
7.1506266E+3 9.6923456E-1
7.1516263E+3 9.5866616E-1
7.1526259E+3 9.4612755E-1
7.1536256E+3 9.3796060E-1
7.1546253E+3 9.2937014E-1
7.1556250E+3 9.2209024E-1
7.1566246E+3 9.2039943E-1
7.1576243E+3 9.1693436E-1
7.1586240E+3 9.2000642E-1
7.1596236E+3 9.2480911E-1
7.1606233E+3 9.2966141E-1
7.1616230E+3 9.3383393E-1
7.1626227E+3 9.4003039E-1
7.1636223E+3 9.4618990E-1
7.1646220E+3 9.5347475E-1
7.1656217E+3 9.6175467E-1
7.1666214E+3 9.7246458E-1
7.1676210E+3 9.8376527E-1
7.1686207E+3 9.9462705E-1
7.1696204E+3 1.0050236E+0
7.1706200E+3 1.0181133E+0
7.1716197E+3 1.0251551E+0
7.1726194E+3 1.0349354E+0
7.1736191E+3 1.0406915E+0
7.1746187E+3 1.0453165E+0
7.1756184E+3 1.0462049E+0
7.1766181E+3 1.0465830E+0
7.1776177E+3 1.0466777E+0
7.1786174E+3 1.0460092E+0
7.1796171E+3 1.0446070E+0
7.1806168E+3 1.0428352E+0
7.1816164E+3 1.0398746E+0
7.1826161E+3 1.0367057E+0
7.1836158E+3 1.0325389E+0
7.1846154E+3 1.0299396E+0
7.1856151E+3 1.0284615E+0
7.1866148E+3 1.0237493E+0
7.1876145E+3 1.0210589E+0
7.1886141E+3 1.0194224E+0
7.1896138E+3 1.0163348E+0
7.1906135E+3 1.0142832E+0
7.1916131E+3 1.0115165E+0
7.1926128E+3 1.0087288E+0
7.1936125E+3 1.0067002E+0
7.1946122E+3 1.0027787E+0
7.1956118E+3 9.9981833E-1
7.1966115E+3 9.9643799E-1
7.1976112E+3 9.9218294E-1
7.1986108E+3 9.8862453E-1
7.1996105E+3 9.8465026E-1
7.2006102E+3 9.8187092E-1
7.2016099E+3 9.8170331E-1
7.2026095E+3 9.8003961E-1
7.2036092E+3 9.7756216E-1
7.2046089E+3 9.7742372E-1
7.2056085E+3 9.7521737E-1
7.2066082E+3 9.7608403E-1
7.2076079E+3 9.7674798E-1
7.2086075E+3 9.7555408E-1
7.2096072E+3 9.7640436E-1
7.2116482E+3 9.8043155E-1
7.2136892E+3 9.8160574E-1
7.2157302E+3 9.8527690E-1
7.2177712E+3 9.8736629E-1
7.2198122E+3 9.8977656E-1
7.2218532E+3 9.9156064E-1
7.2238942E+3 9.9203298E-1
7.2259352E+3 9.9471247E-1
7.2279761E+3 9.9565131E-1
7.2300171E+3 9.9746565E-1
7.2320581E+3 1.0010403E+0
7.2340991E+3 1.0017059E+0
7.2361401E+3 1.0061449E+0
7.2381811E+3 1.0111256E+0
7.2402221E+3 1.0123901E+0
7.2422631E+3 1.0119684E+0
7.2443041E+3 1.0135004E+0
7.2463451E+3 1.0133375E+0
7.2483861E+3 1.0119241E+0
7.2504270E+3 1.0095920E+0
7.2524680E+3 1.0094262E+0
7.2545090E+3 1.0070340E+0
7.2565500E+3 1.0059460E+0
7.2585910E+3 1.0015269E+0
7.2590908E+3 1.0020338E+0
7.2595907E+3 1.0027320E+0
7.2600905E+3 1.0031742E+0
7.2605903E+3 1.0002284E+0
7.2610902E+3 1.0001676E+0
7.2615900E+3 1.0007622E+0
7.2620898E+3 1.0021788E+0
7.2625897E+3 1.0008060E+0
7.2630895E+3 9.9992217E-1
7.2635893E+3 1.0003165E+0
7.2640892E+3 9.9924769E-1
7.2645890E+3 9.9940144E-1
7.2650888E+3 9.9718200E-1
7.2655887E+3 9.9930234E-1
7.2660885E+3 9.9903648E-1
7.2665883E+3 9.9777892E-1
7.2670882E+3 9.9607091E-1
7.2675880E+3 9.9747457E-1
7.2680878E+3 9.9853336E-1
7.2685877E+3 9.9851846E-1
7.2735860E+3 9.9803022E-1
7.2785843E+3 9.9880046E-1
7.2835827E+3 9.9858173E-1
7.2885810E+3 9.9829262E-1
7.2935793E+3 9.9681516E-1
7.2985777E+3 9.9876604E-1
7.3035760E+3 9.9794799E-1
7.3085743E+3 9.9475349E-1
7.3135727E+3 9.9645850E-1
7.3185710E+3 9.9600023E-1
7.3235693E+3 9.9729188E-1
7.3285676E+3 9.9884110E-1
7.3335660E+3 9.9839703E-1
7.3385643E+3 1.0010759E+0
7.3435626E+3 9.9936623E-1
7.3485609E+3 9.9824055E-1
7.3535592E+3 9.9465791E-1
7.3585576E+3 9.9457626E-1
7.3635559E+3 9.9605006E-1
7.3685542E+3 9.9548722E-1
7.3735525E+3 9.9466587E-1
7.3785508E+3 9.9578409E-1
7.3835491E+3 9.9239623E-1
7.3885474E+3 9.9610852E-1
7.3935458E+3 9.9833015E-1
7.3985441E+3 9.9671016E-1
7.4035424E+3 9.9826707E-1
7.4085407E+3 1.0007088E+0
