#%Name: Troilite ITFA component 0
#%Empirical formula: Fe2+S / Webmineral
#%Mineral group: sulfides  
#%Xtal system: Hexagonal    
#%Edge: K
#%Sample prep: powder on kapton tape
#%Beamline: ALS 10.3.2, HxV slits = 100x30 um
#%Det:  I0=N2, Fluorescence mode (Ge solid state 7elts)
#%Ref/notes:  Mineralogical Research Company, San Jose, CA-USA. XRD confirmed.
#%Temp: Room temp (28C)
#%Time&date: 10:57 PM 3/15/2007
#%Provider: Sirine Fakra, Matthew A. Marcus.
#%============================================================
7.0146707E+3 2.0521529E-3
7.0196691E+3 2.0177099E-3
7.0246675E+3 2.8889763E-3
7.0296658E+3 2.0149081E-3
7.0346642E+3 2.0998521E-3
7.0396626E+3 3.2059941E-3
7.0446610E+3 3.1167670E-3
7.0496594E+3 2.8954647E-3
7.0546578E+3 2.4944176E-3
7.0596562E+3 3.1416892E-3
7.0646546E+3 4.0020515E-3
7.0696529E+3 4.6170282E-3
7.0746513E+3 5.0261787E-3
7.0796497E+3 5.8781973E-3
7.0846481E+3 8.3167895E-3
7.0896465E+3 6.6060122E-3
7.0946448E+3 9.1386471E-3
7.0951447E+3 1.0122024E-2
7.0956445E+3 1.0564966E-2
7.0961444E+3 1.0749040E-2
7.0966442E+3 1.0935021E-2
7.0971440E+3 1.1020631E-2
7.0976439E+3 1.1071182E-2
7.0981437E+3 1.2604452E-2
7.0986435E+3 1.2027398E-2
7.0991434E+3 1.2408402E-2
7.0996432E+3 1.3647755E-2
7.1001431E+3 1.3347018E-2
7.1006429E+3 1.3250704E-2
7.1011427E+3 1.4312228E-2
7.1016426E+3 1.4010058E-2
7.1021424E+3 1.4026518E-2
7.1026422E+3 1.6063981E-2
7.1031421E+3 1.5788371E-2
7.1036419E+3 1.6941266E-2
7.1041418E+3 1.7658491E-2
7.1046416E+3 1.8527286E-2
7.1051414E+3 1.9949727E-2
7.1056413E+3 1.9897361E-2
7.1061411E+3 2.1865191E-2
7.1066409E+3 2.2851243E-2
7.1071408E+3 2.3766907E-2
7.1076406E+3 2.5971730E-2
7.1081405E+3 2.8128868E-2
7.1086403E+3 3.0500453E-2
7.1091401E+3 3.4971583E-2
7.1096400E+3 4.0196017E-2
7.1101398E+3 5.0741751E-2
7.1106396E+3 6.7096901E-2
7.1111395E+3 8.8065988E-2
7.1116393E+3 1.0455713E-1
7.1121392E+3 1.1453532E-1
7.1126390E+3 1.2218140E-1
7.1131388E+3 1.2565693E-1
7.1136387E+3 1.3184023E-1
7.1141385E+3 1.4771818E-1
7.1146383E+3 1.7253820E-1
7.1151382E+3 2.0807886E-1
7.1156380E+3 2.6019360E-1
7.1161379E+3 3.3428117E-1
7.1166377E+3 4.1548274E-1
7.1171375E+3 5.0603034E-1
7.1176374E+3 5.8243685E-1
7.1181372E+3 6.6512268E-1
7.1186370E+3 7.4325482E-1
7.1191369E+3 7.9587131E-1
7.1196367E+3 8.3778813E-1
7.1201366E+3 8.6609476E-1
7.1206364E+3 8.8198779E-1
7.1211362E+3 8.8478618E-1
7.1216361E+3 8.9075110E-1
7.1221359E+3 8.9560210E-1
7.1226357E+3 9.0480219E-1
7.1231356E+3 9.0766988E-1
7.1236354E+3 9.2118501E-1
7.1241352E+3 9.3446927E-1
7.1246351E+3 9.4122670E-1
7.1251349E+3 9.4985564E-1
7.1256348E+3 9.5703678E-1
7.1261346E+3 9.6525198E-1
7.1266344E+3 9.7600490E-1
7.1271343E+3 9.8197047E-1
7.1276341E+3 9.9065343E-1
7.1281339E+3 1.0007699E+0
7.1286338E+3 1.0126087E+0
7.1291336E+3 1.0176315E+0
7.1296335E+3 1.0234526E+0
7.1301333E+3 1.0289600E+0
7.1306331E+3 1.0379978E+0
7.1311330E+3 1.0409795E+0
7.1316328E+3 1.0428437E+0
7.1321326E+3 1.0454257E+0
7.1326325E+3 1.0475218E+0
7.1331323E+3 1.0439109E+0
7.1336321E+3 1.0470615E+0
7.1341320E+3 1.0460972E+0
7.1346318E+3 1.0478172E+0
7.1351317E+3 1.0456959E+0
7.1356315E+3 1.0480773E+0
7.1361313E+3 1.0472349E+0
7.1366312E+3 1.0464200E+0
7.1371310E+3 1.0499582E+0
7.1376308E+3 1.0460864E+0
7.1381307E+3 1.0404089E+0
7.1386305E+3 1.0389404E+0
7.1391304E+3 1.0355968E+0
7.1396302E+3 1.0305538E+0
7.1406299E+3 1.0230532E+0
7.1416295E+3 1.0194523E+0
7.1426292E+3 1.0192470E+0
7.1436289E+3 1.0149083E+0
7.1446286E+3 1.0124831E+0
7.1456282E+3 1.0075960E+0
7.1466279E+3 1.0018324E+0
7.1476276E+3 9.9824067E-1
7.1486272E+3 9.8806517E-1
7.1496269E+3 9.7759071E-1
7.1506266E+3 9.6483134E-1
7.1516263E+3 9.5261935E-1
7.1526259E+3 9.4246017E-1
7.1536256E+3 9.3699048E-1
7.1546253E+3 9.2761787E-1
7.1556250E+3 9.2167208E-1
7.1566246E+3 9.1869347E-1
7.1576243E+3 9.1375524E-1
7.1586240E+3 9.1441842E-1
7.1596236E+3 9.1348558E-1
7.1606233E+3 9.1464637E-1
7.1616230E+3 9.1956174E-1
7.1626227E+3 9.2559142E-1
7.1636223E+3 9.3053783E-1
7.1646220E+3 9.4108639E-1
7.1656217E+3 9.4848725E-1
7.1666214E+3 9.5734383E-1
7.1676210E+3 9.6742370E-1
7.1686207E+3 9.7603663E-1
7.1696204E+3 9.8883947E-1
7.1706200E+3 9.9790022E-1
7.1716197E+3 1.0106828E+0
7.1726194E+3 1.0196720E+0
7.1736191E+3 1.0242228E+0
7.1746187E+3 1.0327140E+0
7.1756184E+3 1.0362072E+0
7.1766181E+3 1.0386245E+0
7.1776177E+3 1.0399872E+0
7.1786174E+3 1.0438012E+0
7.1796171E+3 1.0427932E+0
7.1806168E+3 1.0435956E+0
7.1816164E+3 1.0406782E+0
7.1826161E+3 1.0371795E+0
7.1836158E+3 1.0354432E+0
7.1846154E+3 1.0334324E+0
7.1856151E+3 1.0296756E+0
7.1866148E+3 1.0294046E+0
7.1876145E+3 1.0246732E+0
7.1886141E+3 1.0235240E+0
7.1896138E+3 1.0207418E+0
7.1906135E+3 1.0144637E+0
7.1916131E+3 1.0137191E+0
7.1926128E+3 1.0136341E+0
7.1936125E+3 1.0103234E+0
7.1946122E+3 1.0094529E+0
7.1956118E+3 1.0032033E+0
7.1966115E+3 1.0041006E+0
7.1976112E+3 9.9638478E-1
7.1986108E+3 9.9325710E-1
7.1996105E+3 9.8958413E-1
7.2006102E+3 9.8941385E-1
7.2016099E+3 9.8671651E-1
7.2026095E+3 9.8086737E-1
7.2036092E+3 9.7816496E-1
7.2046089E+3 9.7799631E-1
7.2056085E+3 9.7445460E-1
7.2066082E+3 9.7083556E-1
7.2076079E+3 9.6857136E-1
7.2086075E+3 9.6969148E-1
7.2096072E+3 9.7004979E-1
7.2116482E+3 9.6601207E-1
7.2136892E+3 9.6829395E-1
7.2157302E+3 9.7078225E-1
7.2177712E+3 9.7389958E-1
7.2198122E+3 9.7844525E-1
7.2218532E+3 9.8525533E-1
7.2238942E+3 9.9088467E-1
7.2259352E+3 9.9572174E-1
7.2279761E+3 9.9802597E-1
7.2300171E+3 1.0041844E+0
7.2320581E+3 1.0072303E+0
7.2340991E+3 1.0092206E+0
7.2361401E+3 1.0108400E+0
7.2381811E+3 1.0128595E+0
7.2402221E+3 1.0152925E+0
7.2422631E+3 1.0154225E+0
7.2443041E+3 1.0148021E+0
7.2463451E+3 1.0150519E+0
7.2483861E+3 1.0127964E+0
7.2504270E+3 1.0123390E+0
7.2524680E+3 1.0109059E+0
7.2545090E+3 1.0091983E+0
7.2565500E+3 1.0097688E+0
7.2585910E+3 1.0082627E+0
7.2590908E+3 1.0114961E+0
7.2595907E+3 1.0097500E+0
7.2600905E+3 1.0058635E+0
7.2605903E+3 1.0090229E+0
7.2610902E+3 1.0049539E+0
7.2615900E+3 1.0068492E+0
7.2620898E+3 1.0061103E+0
7.2625897E+3 1.0088723E+0
7.2630895E+3 1.0085607E+0
7.2635893E+3 9.9626513E-1
7.2640892E+3 9.9928177E-1
7.2645890E+3 1.0054935E+0
7.2650888E+3 1.0085428E+0
7.2655887E+3 1.0051792E+0
7.2660885E+3 1.0096126E+0
7.2665883E+3 1.0049781E+0
7.2670882E+3 1.0051360E+0
7.2675880E+3 1.0030732E+0
7.2680878E+3 1.0056594E+0
7.2685877E+3 1.0092174E+0
7.2735860E+3 1.0041175E+0
7.2785843E+3 1.0053326E+0
7.2835827E+3 1.0037181E+0
7.2885810E+3 1.0007057E+0
7.2935793E+3 9.9911063E-1
7.2985777E+3 9.9546561E-1
7.3035760E+3 9.9818404E-1
7.3085743E+3 9.9913569E-1
7.3135727E+3 9.9769593E-1
7.3185710E+3 1.0029602E+0
7.3235693E+3 1.0026665E+0
7.3285676E+3 1.0044449E+0
7.3335660E+3 1.0095230E+0
7.3385643E+3 1.0085422E+0
7.3435626E+3 1.0102904E+0
7.3485609E+3 1.0084919E+0
7.3535592E+3 1.0087365E+0
7.3585576E+3 1.0070446E+0
7.3635559E+3 1.0037584E+0
7.3685542E+3 1.0047629E+0
7.3735525E+3 1.0034704E+0
7.3785508E+3 9.9959746E-1
7.3835491E+3 1.0042055E+0
7.3885474E+3 1.0018364E+0
7.3935458E+3 9.9935692E-1
7.3985441E+3 1.0027787E+0
7.4035424E+3 1.0003304E+0
7.4085407E+3 1.0026168E+0
