#%Name: Coalingite
#%Formula: Mg10Fe+++2(CO3)(OH)24â€¢2(H2O) 
#%Mineral class: carbonate 
#%Xtal system: trigonal
#%Edge: K
#%Sample prep: powder on kapton tape
#%Beamline: ALS 10.3.2, HxV slits = 75x20 um
#%Det:  I0=N2, Fluorescence mode (Ge solid state 7elts)
#%Ref/notes:  from MRC, CA-USA. 10.3.2 XRD confirmed, average of several scans, homogeneous
#%Temp: Room temp (28 degC)
#%Time&date=6:45 AM 7/21/2009. Sirine C. Fakra
#%============================================================
7.0107491E+3 1.9364163E-3
7.0157045E+3 1.9554697E-3
7.0207089E+3 1.9528781E-3
7.0257626E+3 2.0636046E-3
7.0307401E+3 2.4575339E-3
7.0357669E+3 2.0833736E-3
7.0407593E+3 2.3943777E-3
7.0457170E+3 2.2213710E-3
7.0507661E+3 2.6066153E-3
7.0557385E+3 3.1951714E-3
7.0607183E+3 3.3870629E-3
7.0657476E+3 3.5954071E-3
7.0706997E+3 4.1558936E-3
7.0757439E+3 4.4240251E-3
7.0807531E+3 5.0776334E-3
7.0857697E+3 5.7174095E-3
7.0907511E+3 6.9015219E-3
7.0956972E+3 7.9949220E-3
7.0962093E+3 8.1519025E-3
7.0967214E+3 8.4915384E-3
7.0973190E+3 8.6429182E-3
7.0977032E+3 8.8509988E-3
7.0982156E+3 9.0823114E-3
7.0986853E+3 9.2386390E-3
7.0991979E+3 9.5682384E-3
7.0997105E+3 9.7298879E-3
7.1002231E+3 1.0093749E-2
7.1006932E+3 1.0487662E-2
7.1012060E+3 1.0628918E-2
7.1017189E+3 1.1074874E-2
7.1021891E+3 1.1217398E-2
7.1026594E+3 1.1393346E-2
7.1031725E+3 1.1950602E-2
7.1036857E+3 1.2286303E-2
7.1041562E+3 1.2689722E-2
7.1046696E+3 1.3200520E-2
7.1051830E+3 1.3608979E-2
7.1056965E+3 1.3978051E-2
7.1061672E+3 1.4669536E-2
7.1066809E+3 1.5215482E-2
7.1071946E+3 1.5940197E-2
7.1077084E+3 1.6731647E-2
7.1082223E+3 1.7028884E-2
7.1086934E+3 1.8302295E-2
7.1092075E+3 1.9690258E-2
7.1097216E+3 2.1459393E-2
7.1101929E+3 2.3711380E-2
7.1106643E+3 2.7352664E-2
7.1113072E+3 3.7472978E-2
7.1117788E+3 4.6526653E-2
7.1122075E+3 5.0388925E-2
7.1127220E+3 4.9974001E-2
7.1131509E+3 5.1582908E-2
7.1136656E+3 5.4571872E-2
7.1142233E+3 5.1399907E-2
7.1146952E+3 4.6322064E-2
7.1152102E+3 4.5344998E-2
7.1157252E+3 4.7057153E-2
7.1161544E+3 5.1014311E-2
7.1166266E+3 5.6813819E-2
7.1171848E+3 6.6381075E-2
7.1176572E+3 7.7405869E-2
7.1181725E+3 9.1858146E-2
7.1186450E+3 1.0999026E-1
7.1192035E+3 1.4258877E-1
7.1197191E+3 1.7768488E-1
7.1201919E+3 2.1254348E-1
7.1207076E+3 2.5481868E-1
7.1212235E+3 3.0478982E-1
7.1216964E+3 3.6581447E-1
7.1222124E+3 4.2492341E-1
7.1227284E+3 5.1150659E-1
7.1232016E+3 5.7437056E-1
7.1237178E+3 6.5764807E-1
7.1241480E+3 7.1340233E-1
7.1246644E+3 7.8062808E-1
7.1252239E+3 8.5468688E-1
7.1256973E+3 9.3414351E-1
7.1262139E+3 1.0326823E+0
7.1266875E+3 1.1300140E+0
7.1272043E+3 1.2368270E+0
7.1277642E+3 1.3392953E+0
7.1281949E+3 1.4117607E+0
7.1287119E+3 1.4612741E+0
7.1291858E+3 1.4897636E+0
7.1297030E+3 1.5161602E+0
7.1301771E+3 1.5370030E+0
7.1306943E+3 1.5562515E+0
7.1312117E+3 1.5652108E+0
7.1316429E+3 1.5623949E+0
7.1322035E+3 1.5399680E+0
7.1327211E+3 1.5024447E+0
7.1331956E+3 1.4669865E+0
7.1337133E+3 1.4253474E+0
7.1342311E+3 1.3949778E+0
7.1349216E+3 1.3628358E+0
7.1352238E+3 1.3513216E+0
7.1356986E+3 1.3311504E+0
7.1361736E+3 1.3156787E+0
7.1366917E+3 1.2972164E+0
7.1371668E+3 1.2808650E+0
7.1378147E+3 1.2603096E+0
7.1381603E+3 1.2478481E+0
7.1387220E+3 1.2275797E+0
7.1391974E+3 1.2113531E+0
7.1397160E+3 1.1961755E+0
7.1401915E+3 1.1827730E+0
7.1407103E+3 1.1704088E+0
7.1417481E+3 1.1527293E+0
7.1428295E+3 1.1376684E+0
7.1437381E+3 1.1229264E+0
7.1446902E+3 1.0926249E+0
7.1457292E+3 1.0517204E+0
7.1467253E+3 1.0144096E+0
7.1477649E+3 9.8069327E-1
7.1487181E+3 9.5774208E-1
7.1497150E+3 9.3867866E-1
7.1507989E+3 9.1990540E-1
7.1517097E+3 9.0448196E-1
7.1527074E+3 8.8490808E-1
7.1537488E+3 8.6844252E-1
7.1547038E+3 8.5591440E-1
7.1557024E+3 8.4752447E-1
7.1567013E+3 8.4447806E-1
7.1577874E+3 8.4628338E-1
7.1587000E+3 8.5187921E-1
7.1596998E+3 8.5954721E-1
7.1607433E+3 8.7098979E-1
7.1617002E+3 8.8007269E-1
7.1627444E+3 8.9320839E-1
7.1637889E+3 9.0955910E-1
7.1647031E+3 9.2469804E-1
7.1657046E+3 9.4346883E-1
7.1667064E+3 9.5816592E-1
7.1677521E+3 9.7248503E-1
7.1688417E+3 9.8492714E-1
7.1696700E+3 9.9241695E-1
7.1707602E+3 9.9866937E-1
7.1718072E+3 1.0085494E+0
7.1726798E+3 1.0135371E+0
7.1737710E+3 1.0263424E+0
7.1746878E+3 1.0356710E+0
7.1757360E+3 1.0442968E+0
7.1766970E+3 1.0498788E+0
7.1778331E+3 1.0547201E+0
7.1786636E+3 1.0561838E+0
7.1797567E+3 1.0557186E+0
7.1807189E+3 1.0565768E+0
7.1817251E+3 1.0612249E+0
7.1826878E+3 1.0633033E+0
7.1836946E+3 1.0672357E+0
7.1847016E+3 1.0719035E+0
7.1857090E+3 1.0736389E+0
7.1867166E+3 1.0734952E+0
7.1877246E+3 1.0779742E+0
7.1886890E+3 1.0781065E+0
7.1896975E+3 1.0811164E+0
7.1908379E+3 1.0838774E+0
7.1916716E+3 1.0828964E+0
7.1927687E+3 1.0817461E+0
7.1936906E+3 1.0802158E+0
7.1948324E+3 1.0775122E+0
7.1958427E+3 1.0739650E+0
7.1966775E+3 1.0692452E+0
7.1977763E+3 1.0626538E+0
7.1986996E+3 1.0563669E+0
7.1997110E+3 1.0472671E+0
7.2007228E+3 1.0415348E+0
7.2016908E+3 1.0345313E+0
7.2027031E+3 1.0304491E+0
7.2038038E+3 1.0188600E+0
7.2047727E+3 1.0128238E+0
7.2056978E+3 1.0081553E+0
7.2067995E+3 1.0022873E+0
7.2078133E+3 9.9589813E-1
7.2086510E+3 9.9132044E-1
7.2098418E+3 9.8522910E-1
7.2106359E+3 9.8236155E-1
7.2127985E+3 9.7260050E-1
7.2148742E+3 9.6521939E-1
7.2167300E+3 9.6306997E-1
7.2186753E+3 9.6270384E-1
7.2207987E+3 9.6129691E-1
7.2227021E+3 9.6223941E-1
7.2248279E+3 9.6315044E-1
7.2267335E+3 9.6719588E-1
7.2287287E+3 9.6777790E-1
7.2308583E+3 9.7047697E-1
7.2328560E+3 9.7563673E-1
7.2348992E+3 9.8107510E-1
7.2368992E+3 9.8789431E-1
7.2389003E+3 9.9452485E-1
7.2408581E+3 1.0024649E+0
7.2427279E+3 1.0082699E+0
7.2446432E+3 1.0108135E+0
7.2467826E+3 1.0118750E+0
7.2488340E+3 1.0116566E+0
7.2508866E+3 1.0098654E+0
7.2528958E+3 1.0101673E+0
7.2548615E+3 1.0118833E+0
7.2567388E+3 1.0130151E+0
7.2572306E+3 1.0125505E+0
7.2579015E+3 1.0121157E+0
7.2582146E+3 1.0132967E+0
7.2587513E+3 1.0137454E+0
7.2591540E+3 1.0133390E+0
7.2596462E+3 1.0138777E+0
7.2602727E+3 1.0125376E+0
7.2606308E+3 1.0128956E+0
7.2613470E+3 1.0103451E+0
7.2618395E+3 1.0126472E+0
7.2623321E+3 1.0119560E+0
7.2628247E+3 1.0110804E+0
7.2631383E+3 1.0088038E+0
7.2637206E+3 1.0071569E+0
7.2641238E+3 1.0100014E+0
7.2648408E+3 1.0118178E+0
7.2651545E+3 1.0100916E+0
7.2655579E+3 1.0098991E+0
7.2662752E+3 1.0111420E+0
7.2669029E+3 1.0105682E+0
7.2673065E+3 1.0106377E+0
7.2676204E+3 1.0121906E+0
7.2707613E+3 1.0112496E+0
7.2738602E+3 1.0113285E+0
7.2767369E+3 1.0101094E+0
7.2798860E+3 1.0103327E+0
7.2827226E+3 1.0080141E+0
7.2856968E+3 1.0046929E+0
7.2887638E+3 1.0034549E+0
7.2916979E+3 1.0014952E+0
7.2948605E+3 1.0012999E+0
7.2977093E+3 9.9727381E-1
7.3006962E+3 9.9366599E-1
7.3037310E+3 9.9183312E-1
7.3067231E+3 9.8923983E-1
7.3097177E+3 9.8905640E-1
7.3127603E+3 9.8782107E-1
7.3157145E+3 9.8480351E-1
7.3188078E+3 9.8441944E-1
7.3217216E+3 9.8269492E-1
7.3246834E+3 9.8233365E-1
7.3277390E+3 9.8508422E-1
7.3307515E+3 9.8518624E-1
7.3337667E+3 9.8578963E-1
7.3366929E+3 9.8635788E-1
7.3397131E+3 9.8969468E-1
7.3427358E+3 9.9096866E-1
7.3457154E+3 9.9401398E-1
7.3486974E+3 9.9666720E-1
7.3518197E+3 9.9918781E-1
7.3547150E+3 1.0004195E+0
7.3577506E+3 1.0029865E+0
7.3607428E+3 1.0029693E+0
7.3637375E+3 1.0042162E+0
7.3666886E+3 1.0031638E+0
7.3697345E+3 1.0033460E+0
7.3727369E+3 1.0033457E+0
7.3757417E+3 1.0018392E+0
7.3787491E+3 1.0025145E+0
7.3818054E+3 1.0027218E+0
7.3847716E+3 1.0022008E+0
7.3878331E+3 1.0019706E+0
7.3907579E+3 1.0026144E+0
7.3938245E+3 1.0024638E+0
7.3967542E+3 1.0013913E+0
7.3997329E+3 1.0034951E+0
7.4027607E+3 1.0024110E+0
7.4056977E+3 1.0018810E+0
7.4086839E+3 1.0036142E+0
7.4117193E+3 1.0040986E+0
