#%Name: Î±-Fe2O3, Hematite
#%Formula: Fe2O3
#%Mineral class: oxides
#%Xtal system: trigonal 
#%Edge: K
#%Sample prep: This is a chunk out of a Lytle Fe-3 filter
#%Beamline: ALS 10.3.2, HxV slits = 300x20 um
#%Det:  I0=N2, Transmission mode 
#%Ref/notes:  average of several scans (.dat), XRD checked
#%Temp: Room temp (28C)
#%Time&date: 7/23/2004. Matthew A. Marcus
#%============================================================
6.9119918E+3 4.3146414E-4
6.9170067E+3 4.9032725E-4
6.9220293E+3 5.2005775E-4
6.9269377E+3 3.4523190E-4
6.9319754E+3 3.8010177E-4
6.9369800E+3 4.7847447E-4
6.9420329E+3 4.0976888E-4
6.9468894E+3 3.0706142E-4
6.9519983E+3 4.2132697E-4
6.9570331E+3 3.4818525E-4
6.9619936E+3 3.7982864E-4
6.9670024E+3 3.9610468E-4
6.9720600E+3 4.4011116E-4
6.9769604E+3 3.3884415E-4
6.9819918E+3 5.0337401E-4
6.9869481E+3 5.2049394E-4
6.9919946E+3 5.1479229E-4
6.9969243E+3 5.0575517E-4
7.0019443E+3 4.5243517E-4
7.0070965E+3 6.0670461E-4
7.0119652E+3 5.4991582E-4
7.0170077E+3 6.5554405E-4
7.0219326E+3 5.4627563E-4
7.0268646E+3 5.8657796E-4
7.0320133E+3 7.4237704E-4
7.0369601E+3 7.2876213E-4
7.0419562E+3 8.5890341E-4
7.0470439E+3 9.6909661E-4
7.0520128E+3 1.0725434E-3
7.0569468E+3 1.2711234E-3
7.0620570E+3 1.4790480E-3
7.0669634E+3 1.5939272E-3
7.0720464E+3 1.8332634E-3
7.0770522E+3 2.2383603E-3
7.0819378E+3 2.7159459E-3
7.0823629E+3 2.7158879E-3
7.0829157E+3 2.8007360E-3
7.0834261E+3 2.7457899E-3
7.0839365E+3 2.8624685E-3
7.0845321E+3 2.8936296E-3
7.0849150E+3 2.9266738E-3
7.0854682E+3 2.9328555E-3
7.0859364E+3 3.0301519E-3
7.0864898E+3 2.9367212E-3
7.0869581E+3 2.9670381E-3
7.0875117E+3 3.0391282E-3
7.0878949E+3 2.9836356E-3
7.0884486E+3 3.1564999E-3
7.0890024E+3 3.1925612E-3
7.0895137E+3 3.1819895E-3
7.0899398E+3 3.2593933E-3
7.0904512E+3 3.3258345E-3
7.0910479E+3 3.4228303E-3
7.0914316E+3 3.4017677E-3
7.0919432E+3 3.5430397E-3
7.0924976E+3 3.5869993E-3
7.0929667E+3 3.6104586E-3
7.0934786E+3 3.7747443E-3
7.0939479E+3 3.8114378E-3
7.0944172E+3 3.8731918E-3
7.0949720E+3 3.9785267E-3
7.0954415E+3 4.0567307E-3
7.0959537E+3 4.1566680E-3
7.0963379E+3 4.2480272E-3
7.0970211E+3 4.3997379E-3
7.0974482E+3 4.5585414E-3
7.0979180E+3 4.6996399E-3
7.0985160E+3 4.8468791E-3
7.0989433E+3 4.9514440E-3
7.0994560E+3 5.1922067E-3
7.0999689E+3 5.3920252E-3
7.1004391E+3 5.4883710E-3
7.1009948E+3 5.4666586E-3
7.1015079E+3 5.7243984E-3
7.1019783E+3 5.9176763E-3
7.1024915E+3 6.1082892E-3
7.1029620E+3 6.3390956E-3
7.1034754E+3 6.6814637E-3
7.1039888E+3 6.8465669E-3
7.1044167E+3 7.2019493E-3
7.1051015E+3 7.6799607E-3
7.1053584E+3 7.9806949E-3
7.1058721E+3 8.4180960E-3
7.1064715E+3 8.8640601E-3
7.1069426E+3 9.4110277E-3
7.1074994E+3 1.0076162E-2
7.1079706E+3 1.0769232E-2
7.1084419E+3 1.1537128E-2
7.1089561E+3 1.2513245E-2
7.1094704E+3 1.3746697E-2
7.1099847E+3 1.5443943E-2
7.1104563E+3 1.7873995E-2
7.1109279E+3 2.1435267E-2
7.1115282E+3 2.6572427E-2
7.1120000E+3 3.7541281E-2
7.1124718E+3 4.9470094E-2
7.1129866E+3 5.7138223E-2
7.1134586E+3 6.5394104E-2
7.1139306E+3 6.9621329E-2
7.1144457E+3 6.6726075E-2
7.1149608E+3 6.4099540E-2
7.1155189E+3 6.4381941E-2
7.1159483E+3 6.6450340E-2
7.1165065E+3 6.9415500E-2
7.1168931E+3 7.1876379E-2
7.1174945E+3 7.4805435E-2
7.1179671E+3 7.9110219E-2
7.1184397E+3 8.5627329E-2
7.1189554E+3 9.6666425E-2
7.1194712E+3 1.1280709E-1
7.1199441E+3 1.3486199E-1
7.1205030E+3 1.6815146E-1
7.1209760E+3 2.1113985E-1
7.1214491E+3 2.6176700E-1
7.1220082E+3 3.3501968E-1
7.1224384E+3 4.0653772E-1
7.1229547E+3 4.7901510E-1
7.1235142E+3 5.4708570E-1
7.1239446E+3 6.0471955E-1
7.1244611E+3 6.7135043E-1
7.1249777E+3 7.4775602E-1
7.1254083E+3 8.1783805E-1
7.1260112E+3 9.0119683E-1
7.1264419E+3 9.8450926E-1
7.1269588E+3 1.0674101E+0
7.1274758E+3 1.1425122E+0
7.1279928E+3 1.2114479E+0
7.1285100E+3 1.2755025E+0
7.1289841E+3 1.3150939E+0
7.1295014E+3 1.3381103E+0
7.1299325E+3 1.3474450E+0
7.1304931E+3 1.3552924E+0
7.1309675E+3 1.3685113E+0
7.1315282E+3 1.3883922E+0
7.1320027E+3 1.4142217E+0
7.1324342E+3 1.4331062E+0
7.1329952E+3 1.4386550E+0
7.1334699E+3 1.4296498E+0
7.1339447E+3 1.4093977E+0
7.1344628E+3 1.3826955E+0
7.1349377E+3 1.3543955E+0
7.1354559E+3 1.3267530E+0
7.1360174E+3 1.3035272E+0
7.1364493E+3 1.2868608E+0
7.1370109E+3 1.2712950E+0
7.1374430E+3 1.2565717E+0
7.1379616E+3 1.2368942E+0
7.1383938E+3 1.2170754E+0
7.1389558E+3 1.1945058E+0
7.1394746E+3 1.1699391E+0
7.1399502E+3 1.1464823E+0
7.1404692E+3 1.1239325E+0
7.1409449E+3 1.1055180E+0
7.1415073E+3 1.0870968E+0
7.1419400E+3 1.0722328E+0
7.1425025E+3 1.0587712E+0
7.1429353E+3 1.0502885E+0
7.1434980E+3 1.0438395E+0
7.1439742E+3 1.0403238E+0
7.1444937E+3 1.0391251E+0
7.1450567E+3 1.0395126E+0
7.1454465E+3 1.0411867E+0
7.1459229E+3 1.0431676E+0
7.1464428E+3 1.0435266E+0
7.1470060E+3 1.0414112E+0
7.1474394E+3 1.0368164E+0
7.1479595E+3 1.0293757E+0
7.1484363E+3 1.0197273E+0
7.1489565E+3 1.0081373E+0
7.1494769E+3 9.9523044E-1
7.1499539E+3 9.8391892E-1
7.1504744E+3 9.7246352E-1
7.1509515E+3 9.6221385E-1
7.1515155E+3 9.5230018E-1
7.1519494E+3 9.4334832E-1
7.1524702E+3 9.3426387E-1
7.1529911E+3 9.2630143E-1
7.1535120E+3 9.1710863E-1
7.1539462E+3 9.0911530E-1
7.1544672E+3 9.0068713E-1
7.1549884E+3 8.9217105E-1
7.1555096E+3 8.8359326E-1
7.1559875E+3 8.7570789E-1
7.1564654E+3 8.6776369E-1
7.1569869E+3 8.6119599E-1
7.1574650E+3 8.5448358E-1
7.1579431E+3 8.4904517E-1
7.1585083E+3 8.4466230E-1
7.1589431E+3 8.4143308E-1
7.1594649E+3 8.3934465E-1
7.1599868E+3 8.3850411E-1
7.1604653E+3 8.3868302E-1
7.1609874E+3 8.3949309E-1
7.1614660E+3 8.4106629E-1
7.1619882E+3 8.4300188E-1
7.1639908E+3 8.5652238E-1
7.1659945E+3 8.7297097E-1
7.1679994E+3 8.9452048E-1
7.1700055E+3 9.2700232E-1
7.1720127E+3 9.7061671E-1
7.1740211E+3 1.0200443E+0
7.1759870E+3 1.0551015E+0
7.1779977E+3 1.0736365E+0
7.1800096E+3 1.0826868E+0
7.1820227E+3 1.0841735E+0
7.1839931E+3 1.0803092E+0
7.1860085E+3 1.0753414E+0
7.1879813E+3 1.0714262E+0
7.1900429E+3 1.0675096E+0
7.1920179E+3 1.0609039E+0
7.1939941E+3 1.0509427E+0
7.1960153E+3 1.0404976E+0
7.1979938E+3 1.0307558E+0
7.2000613E+3 1.0203915E+0
7.2019981E+3 1.0087460E+0
7.2039800E+3 9.9758470E-1
7.2060071E+3 9.8968839E-1
7.2079912E+3 9.8476072E-1
7.2100207E+3 9.8191810E-1
7.2120071E+3 9.8086125E-1
7.2139948E+3 9.8193425E-1
7.2160277E+3 9.8571286E-1
7.2180176E+3 9.9218705E-1
7.2199644E+3 9.9884234E-1
7.2220009E+3 1.0029940E+0
7.2239943E+3 1.0045931E+0
7.2259887E+3 1.0042724E+0
7.2279844E+3 1.0017712E+0
7.2299812E+3 9.9808314E-1
7.2319791E+3 9.9490791E-1
7.2339782E+3 9.9465580E-1
7.2359784E+3 9.9610660E-1
7.2379798E+3 9.9838451E-1
7.2399824E+3 9.9957539E-1
7.2419861E+3 9.9906974E-1
7.2439909E+3 9.9577643E-1
7.2459969E+3 9.9063004E-1
7.2480041E+3 9.8598986E-1
7.2499677E+3 9.8332078E-1
7.2520219E+3 9.8234245E-1
7.2539878E+3 9.8318073E-1
7.2559996E+3 9.8618646E-1
7.2580125E+3 9.9143828E-1
7.2600266E+3 9.9829175E-1
7.2619970E+3 1.0043725E+0
7.2640134E+3 1.0112498E+0
7.2659861E+3 1.0143764E+0
7.2680048E+3 1.0178113E+0
7.2699798E+3 1.0183150E+0
7.2720008E+3 1.0185070E+0
7.2739780E+3 1.0199662E+0
7.2760013E+3 1.0237706E+0
7.2779808E+3 1.0279131E+0
7.2800065E+3 1.0309357E+0
7.2819882E+3 1.0323669E+0
7.2840162E+3 1.0330065E+0
7.2860002E+3 1.0322945E+0
7.2879853E+3 1.0304245E+0
7.2900168E+3 1.0282477E+0
7.2920042E+3 1.0260286E+0
7.2939927E+3 1.0240846E+0
7.2959824E+3 1.0216212E+0
7.2980185E+3 1.0183272E+0
7.3000105E+3 1.0144832E+0
7.3020035E+3 1.0099286E+0
7.3039978E+3 1.0049899E+0
7.3059931E+3 9.9978067E-1
7.3079896E+3 9.9497401E-1
7.3099873E+3 9.9062824E-1
7.3119860E+3 9.8568700E-1
7.3139859E+3 9.8078438E-1
7.3159869E+3 9.7604022E-1
7.3179891E+3 9.7206323E-1
7.3199924E+3 9.6966768E-1
7.3219969E+3 9.6961109E-1
7.3240025E+3 9.7148215E-1
7.3260092E+3 9.7477594E-1
7.3280171E+3 9.7995036E-1
7.3299805E+3 9.8543485E-1
7.3319906E+3 9.9129755E-1
7.3340019E+3 9.9725598E-1
7.3360143E+3 1.0028698E+0
7.3379821E+3 1.0081221E+0
7.3399969E+3 1.0127794E+0
7.3420127E+3 1.0164707E+0
7.3439839E+3 1.0186662E+0
7.3460020E+3 1.0194429E+0
7.3480213E+3 1.0189238E+0
7.3499958E+3 1.0169768E+0
7.3520174E+3 1.0148409E+0
7.3539941E+3 1.0130518E+0
7.3560180E+3 1.0110914E+0
7.3579970E+3 1.0096524E+0
7.3599770E+3 1.0077195E+0
7.3620043E+3 1.0052434E+0
7.3639866E+3 1.0025689E+0
7.3659701E+3 9.9978051E-1
7.3680470E+3 9.9692076E-1
7.3699865E+3 9.9399253E-1
7.3720195E+3 9.9148022E-1
7.3740074E+3 9.8944844E-1
7.3759965E+3 9.8831648E-1
7.3779866E+3 9.8766446E-1
7.3799779E+3 9.8734698E-1
7.3820167E+3 9.8692180E-1
7.3840102E+3 9.8635958E-1
7.3860048E+3 9.8608191E-1
7.3880006E+3 9.8531153E-1
7.3899975E+3 9.8519379E-1
7.3919955E+3 9.8522574E-1
7.3939947E+3 9.8637001E-1
7.3959950E+3 9.8804594E-1
7.3979963E+3 9.9071544E-1
7.3999989E+3 9.9401453E-1
7.4020025E+3 9.9730987E-1
7.4040073E+3 1.0008562E+0
7.4060132E+3 1.0039240E+0
7.4080202E+3 1.0067128E+0
7.4099349E+3 1.0092444E+0
7.4119909E+3 1.0111865E+0
7.4140013E+3 1.0122705E+0