#%Name: Illite-smectite mixedlayer ISCz-1
#%formula: 
#%Mineral class: 
#%Xtal system: 
#%Edge: K
#%Sample prep: Clay was ground and suspended in DI water for a day, and the supernatant spun down to obtain the fines. Mounted between 2 layers of kapton tape. 
#%Beamline: ALS 10.3.2, HxV slits = 250x20 um
#%Det:  I0=N2, Fluorescence mode (Ge solid state 7elts)
#%Ref/notes:  from the Clay Minerals Society. XRD confirmed. average of several dat scans Fe-poor.
#%Temp: Room temp (28 degC)
#%Time&date: 4:47 AM 9/14/2011. Matthew A. Marcus
#%============================================================
7.0110784E+3 3.0306878E-3
7.0120785E+3 2.9593319E-3
7.0130785E+3 2.9469656E-3
7.0140786E+3 2.9872644E-3
7.0150787E+3 3.0889891E-3
7.0160787E+3 3.1687073E-3
7.0170788E+3 3.0647350E-3
7.0180789E+3 3.1525181E-3
7.0190789E+3 3.3068640E-3
7.0200790E+3 3.3568813E-3
7.0210791E+3 3.2243029E-3
7.0220791E+3 3.3174819E-3
7.0230792E+3 3.2228110E-3
7.0240793E+3 3.3954377E-3
7.0250793E+3 3.3547771E-3
7.0260794E+3 3.3170960E-3
7.0270795E+3 3.4892971E-3
7.0280795E+3 3.4695845E-3
7.0290796E+3 3.4153120E-3
7.0300797E+3 3.3921643E-3
7.0310797E+3 3.6961482E-3
7.0320798E+3 3.7863386E-3
7.0330799E+3 3.7554084E-3
7.0340799E+3 3.7158336E-3
7.0350800E+3 3.7596347E-3
7.0360800E+3 3.7143838E-3
7.0370801E+3 3.7318986E-3
7.0380802E+3 3.7697022E-3
7.0390802E+3 3.8260776E-3
7.0400803E+3 3.9171943E-3
7.0410804E+3 4.0407803E-3
7.0420804E+3 4.0386852E-3
7.0430805E+3 4.1353435E-3
7.0440806E+3 4.2363262E-3
7.0450806E+3 4.1797903E-3
7.0460807E+3 4.2274453E-3
7.0470808E+3 4.3359837E-3
7.0480808E+3 4.2798188E-3
7.0490809E+3 4.3077884E-3
7.0500810E+3 4.2113906E-3
7.0510810E+3 4.3282640E-3
7.0520811E+3 4.6015660E-3
7.0530812E+3 4.7091439E-3
7.0540812E+3 4.5809880E-3
7.0550813E+3 4.7480781E-3
7.0560814E+3 4.8824922E-3
7.0570814E+3 4.7784379E-3
7.0580815E+3 4.9522431E-3
7.0590816E+3 4.9024258E-3
7.0600816E+3 5.0693471E-3
7.0610817E+3 5.0513163E-3
7.0620817E+3 5.2934969E-3
7.0630818E+3 5.3593732E-3
7.0640819E+3 5.4851189E-3
7.0650819E+3 5.6874103E-3
7.0660820E+3 5.7356513E-3
7.0670821E+3 5.8521816E-3
7.0680821E+3 6.1647444E-3
7.0690822E+3 6.3049402E-3
7.0700823E+3 6.3769286E-3
7.0710823E+3 6.4755812E-3
7.0720824E+3 6.6349068E-3
7.0730825E+3 6.8736052E-3
7.0740825E+3 6.9721627E-3
7.0750826E+3 7.2154280E-3
7.0760827E+3 7.3105032E-3
7.0770827E+3 7.5639996E-3
7.0780828E+3 7.5324760E-3
7.0790828E+3 7.7879864E-3
7.0800829E+3 8.1532877E-3
7.0810830E+3 8.2543040E-3
7.0820830E+3 8.3122647E-3
7.0830831E+3 8.5719369E-3
7.0840832E+3 8.7974677E-3
7.0850832E+3 9.1288043E-3
7.0860833E+3 9.4126861E-3
7.0870834E+3 9.6340280E-3
7.0880834E+3 9.9669287E-3
7.0890835E+3 1.0354257E-2
7.0900835E+3 1.0537670E-2
7.0910836E+3 1.0895855E-2
7.0920837E+3 1.1335798E-2
7.0930837E+3 1.1686352E-2
7.0940838E+3 1.2262394E-2
7.0948337E+3 1.2392435E-2
7.0953336E+3 1.2569045E-2
7.0958334E+3 1.2889861E-2
7.0963332E+3 1.3260022E-2
7.0968331E+3 1.3336664E-2
7.0973329E+3 1.3701979E-2
7.0978327E+3 1.3660344E-2
7.0983325E+3 1.4041076E-2
7.0988324E+3 1.4448017E-2
7.0993322E+3 1.4913351E-2
7.0998320E+3 1.5404910E-2
7.1003319E+3 1.5793433E-2
7.1008317E+3 1.5922126E-2
7.1013315E+3 1.6137029E-2
7.1018313E+3 1.6578167E-2
7.1023312E+3 1.7069338E-2
7.1028310E+3 1.7183779E-2
7.1033308E+3 1.7855753E-2
7.1038307E+3 1.8357656E-2
7.1043305E+3 1.8144435E-2
7.1048303E+3 1.8797270E-2
7.1053301E+3 1.9511839E-2
7.1058300E+3 2.0196318E-2
7.1063298E+3 2.1132588E-2
7.1068296E+3 2.1688797E-2
7.1073295E+3 2.2312861E-2
7.1078293E+3 2.3099231E-2
7.1083291E+3 2.4254800E-2
7.1088289E+3 2.5249153E-2
7.1093288E+3 2.6347273E-2
7.1098286E+3 2.7968790E-2
7.1103284E+3 3.0480966E-2
7.1108283E+3 3.4028120E-2
7.1113281E+3 4.0266818E-2
7.1118279E+3 4.8771661E-2
7.1123277E+3 5.5551205E-2
7.1128276E+3 5.7312079E-2
7.1133274E+3 5.7257660E-2
7.1138272E+3 5.6767111E-2
7.1143271E+3 5.5521180E-2
7.1148269E+3 5.3307182E-2
7.1153267E+3 5.2148393E-2
7.1158265E+3 5.3143670E-2
7.1163264E+3 5.6522535E-2
7.1168262E+3 6.3121972E-2
7.1173260E+3 7.1386922E-2
7.1178259E+3 8.1893502E-2
7.1183257E+3 9.4623612E-2
7.1188255E+3 1.1111959E-1
7.1193253E+3 1.3355288E-1
7.1198252E+3 1.6078327E-1
7.1203250E+3 1.9388075E-1
7.1208248E+3 2.2809885E-1
7.1213246E+3 2.6707571E-1
7.1218245E+3 3.1409581E-1
7.1223243E+3 3.7498999E-1
7.1228241E+3 4.5190252E-1
7.1233240E+3 5.3486823E-1
7.1238238E+3 6.1174246E-1
7.1243236E+3 6.8043222E-1
7.1248234E+3 7.4549235E-1
7.1253233E+3 8.1262970E-1
7.1258231E+3 8.8647041E-1
7.1263229E+3 9.7485963E-1
7.1268228E+3 1.0723076E+0
7.1273226E+3 1.1673792E+0
7.1278224E+3 1.2448600E+0
7.1283222E+3 1.3028778E+0
7.1288221E+3 1.3350012E+0
7.1293219E+3 1.3603855E+0
7.1298217E+3 1.3933965E+0
7.1303216E+3 1.4286237E+0
7.1308214E+3 1.4689325E+0
7.1313212E+3 1.5018866E+0
7.1318210E+3 1.5120655E+0
7.1323209E+3 1.5060170E+0
7.1328207E+3 1.4851286E+0
7.1333205E+3 1.4592639E+0
7.1338203E+3 1.4369103E+0
7.1343202E+3 1.4096712E+0
7.1348200E+3 1.3764813E+0
7.1353198E+3 1.3465812E+0
7.1358197E+3 1.3173143E+0
7.1363195E+3 1.2877654E+0
7.1368193E+3 1.2592178E+0
7.1373191E+3 1.2425294E+0
7.1378190E+3 1.2214131E+0
7.1383188E+3 1.1986196E+0
7.1388186E+3 1.1817792E+0
7.1393185E+3 1.1672953E+0
7.1400682E+3 1.1425556E+0
7.1410678E+3 1.1115484E+0
7.1420675E+3 1.0878383E+0
7.1430672E+3 1.0772433E+0
7.1440668E+3 1.0735016E+0
7.1450665E+3 1.0700890E+0
7.1460661E+3 1.0605537E+0
7.1470658E+3 1.0417353E+0
7.1480654E+3 1.0133830E+0
7.1490651E+3 9.8333717E-1
7.1500647E+3 9.4844807E-1
7.1510644E+3 9.1707151E-1
7.1520641E+3 8.8940842E-1
7.1530637E+3 8.6610637E-1
7.1540634E+3 8.5280618E-1
7.1550630E+3 8.4026030E-1
7.1560627E+3 8.3141661E-1
7.1570623E+3 8.2499195E-1
7.1580620E+3 8.2093011E-1
7.1590616E+3 8.1974291E-1
7.1600613E+3 8.1709054E-1
7.1610609E+3 8.1799603E-1
7.1620606E+3 8.2320166E-1
7.1630603E+3 8.3152534E-1
7.1640599E+3 8.4157056E-1
7.1650596E+3 8.5496962E-1
7.1660592E+3 8.7421880E-1
7.1670589E+3 8.8862715E-1
7.1680585E+3 9.0639504E-1
7.1690582E+3 9.2191244E-1
7.1700578E+3 9.3735670E-1
7.1710575E+3 9.5622195E-1
7.1720571E+3 9.6913437E-1
7.1730568E+3 9.8096099E-1
7.1740564E+3 9.9860035E-1
7.1750561E+3 1.0137301E+0
7.1760558E+3 1.0225186E+0
7.1770554E+3 1.0298894E+0
7.1780551E+3 1.0387292E+0
7.1790547E+3 1.0440915E+0
7.1800544E+3 1.0522425E+0
7.1810540E+3 1.0562351E+0
7.1820537E+3 1.0616021E+0
7.1830533E+3 1.0645673E+0
7.1840530E+3 1.0693373E+0
7.1850526E+3 1.0745156E+0
7.1860523E+3 1.0747247E+0
7.1870519E+3 1.0773276E+0
7.1880516E+3 1.0766680E+0
7.1890512E+3 1.0750234E+0
7.1900509E+3 1.0766719E+0
7.1910506E+3 1.0788326E+0
7.1920502E+3 1.0762764E+0
7.1930499E+3 1.0775074E+0
7.1940495E+3 1.0736473E+0
7.1950492E+3 1.0714185E+0
7.1960488E+3 1.0681972E+0
7.1970485E+3 1.0625474E+0
7.1980481E+3 1.0612117E+0
7.1990478E+3 1.0522231E+0
7.2000474E+3 1.0451874E+0
7.2010471E+3 1.0398190E+0
7.2020467E+3 1.0293440E+0
7.2030464E+3 1.0183813E+0
7.2040460E+3 1.0109051E+0
7.2050457E+3 1.0028504E+0
7.2060453E+3 9.9509425E-1
7.2070450E+3 9.8968804E-1
7.2080446E+3 9.8336106E-1
7.2090443E+3 9.7361721E-1
7.2100439E+3 9.6779835E-1
7.2110436E+3 9.6605571E-1
7.2120433E+3 9.5955852E-1
7.2130429E+3 9.5723491E-1
7.2140426E+3 9.5474295E-1
7.2150422E+3 9.5116009E-1
7.2160419E+3 9.4845190E-1
7.2170415E+3 9.5115658E-1
7.2180412E+3 9.5250087E-1
7.2190408E+3 9.5450786E-1
7.2200405E+3 9.5428175E-1
7.2210401E+3 9.5886082E-1
7.2220398E+3 9.6093228E-1
7.2230394E+3 9.6650763E-1
7.2240391E+3 9.6881358E-1
7.2250387E+3 9.7103158E-1
7.2260384E+3 9.7386060E-1
7.2270380E+3 9.7527020E-1
7.2280377E+3 9.7604492E-1
7.2290373E+3 9.7690642E-1
7.2300370E+3 9.8020929E-1
7.2310366E+3 9.7989064E-1
7.2320363E+3 9.7944350E-1
7.2330359E+3 9.7984252E-1
7.2340356E+3 9.7832130E-1
7.2350352E+3 9.8022269E-1
7.2360349E+3 9.8015858E-1
7.2370345E+3 9.8208042E-1
7.2380342E+3 9.8503800E-1
7.2390338E+3 9.8659170E-1
7.2400335E+3 9.8638781E-1
7.2410331E+3 9.8817605E-1
7.2420328E+3 9.8828415E-1
7.2430324E+3 9.8633537E-1
7.2440321E+3 9.8856791E-1
7.2450317E+3 9.9099366E-1
7.2460314E+3 9.8895433E-1
7.2470310E+3 9.8962206E-1
7.2480307E+3 9.9272443E-1
7.2490303E+3 9.9506955E-1
7.2500300E+3 9.9689116E-1
7.2510296E+3 9.9685171E-1
7.2520293E+3 9.9751823E-1
7.2530289E+3 1.0027075E+0
7.2540286E+3 1.0055265E+0
7.2550282E+3 1.0060114E+0
7.2557780E+3 1.0056282E+0
7.2562778E+3 1.0034367E+0
7.2567776E+3 1.0061168E+0
7.2572774E+3 1.0067438E+0
7.2577773E+3 1.0095788E+0
7.2582771E+3 1.0111337E+0
7.2587769E+3 1.0116910E+0
7.2592767E+3 1.0112809E+0
7.2597766E+3 1.0145104E+0
7.2602764E+3 1.0123605E+0
7.2607762E+3 1.0130363E+0
7.2612760E+3 1.0136964E+0
7.2617759E+3 1.0143411E+0
7.2622757E+3 1.0149703E+0
7.2627755E+3 1.0155840E+0
7.2632753E+3 1.0161820E+0
7.2637752E+3 1.0167644E+0
7.2642750E+3 1.0173312E+0
7.2647748E+3 1.0178823E+0
7.2652746E+3 1.0184179E+0
7.2657745E+3 1.0189378E+0
7.2662743E+3 1.0194420E+0
7.2681236E+3 1.0229581E+0
7.2713225E+3 1.0230134E+0
7.2745214E+3 1.0231149E+0
7.2777203E+3 1.0236483E+0
7.2809191E+3 1.0232567E+0
7.2841180E+3 1.0235783E+0
7.2873169E+3 1.0199189E+0
7.2905158E+3 1.0172855E+0
7.2937146E+3 1.0132381E+0
7.2969135E+3 1.0043596E+0
7.3001124E+3 9.9894687E-1
7.3033113E+3 9.9553609E-1
7.3065101E+3 9.9056948E-1
7.3097090E+3 9.8786338E-1
7.3129079E+3 9.8671148E-1
7.3161067E+3 9.8439105E-1
7.3193056E+3 9.8372437E-1
7.3225045E+3 9.8759077E-1
7.3257034E+3 9.8833326E-1
7.3289022E+3 9.9088052E-1
7.3321011E+3 9.9420450E-1
7.3353000E+3 9.9582873E-1
7.3384988E+3 9.9869313E-1
7.3416977E+3 9.9908045E-1
7.3448966E+3 1.0002655E+0
7.3480954E+3 1.0008334E+0
7.3512943E+3 1.0014840E+0
7.3544931E+3 1.0012041E+0
7.3576920E+3 1.0004799E+0
7.3608909E+3 1.0001615E+0
7.3640897E+3 1.0018821E+0
7.3672886E+3 1.0008490E+0
7.3704875E+3 1.0009221E+0
7.3736863E+3 1.0027888E+0
7.3768852E+3 1.0026484E+0
7.3800840E+3 1.0033826E+0
7.3832829E+3 1.0034359E+0
7.3864818E+3 1.0044989E+0
7.3896806E+3 1.0060138E+0
7.3928795E+3 1.0052305E+0
7.3960783E+3 1.0035085E+0
7.3992772E+3 1.0035865E+0
7.4024761E+3 1.0017810E+0
7.4056749E+3 9.9989385E-1
