#%Name: Biotite
#%Formula: K(Mg,Fe)3(AlSi3O10)(F,OH)2
#%Mineral class: silicate
#%Xtal system: monoclinic
#%Edge: K
#%Sample prep: powder on kapton tape
#%Beamline: ALS 10.3.2, HxV slits = 300x20 um
#%Det:  I0=N2, Fluorescence mode (Ge solid state 7elts)
#%Ref/notes: XRD confirmed, UCB mineral collection.
#%Temp: Room temp (28 degC)
#%Time&date: 6:33 AM 6/21/2007
#%Provider: Sirine Fakra
#%============================================================
7.0154490E+3 1.6927427E-3
7.0204485E+3 1.8174119E-3
7.0254481E+3 1.8320541E-3
7.0304476E+3 1.8911404E-3
7.0354472E+3 2.0239861E-3
7.0404467E+3 2.1610683E-3
7.0454463E+3 2.3131391E-3
7.0504458E+3 2.5806901E-3
7.0554454E+3 2.6221581E-3
7.0604449E+3 2.9363187E-3
7.0654445E+3 3.2107877E-3
7.0704440E+3 3.5626472E-3
7.0754436E+3 4.0437341E-3
7.0804431E+3 4.6802119E-3
7.0854427E+3 5.4928593E-3
7.0904422E+3 6.4152435E-3
7.0954418E+3 8.1589168E-3
7.0959417E+3 8.2449569E-3
7.0964417E+3 8.4791264E-3
7.0969416E+3 8.7957674E-3
7.0974416E+3 8.9729744E-3
7.0979416E+3 9.1027099E-3
7.0984415E+3 9.2431224E-3
7.0989415E+3 9.4700394E-3
7.0994414E+3 9.9178123E-3
7.0999414E+3 1.0173065E-2
7.1004413E+3 1.0452075E-2
7.1009413E+3 1.0761392E-2
7.1014412E+3 1.1065103E-2
7.1019412E+3 1.1451128E-2
7.1024412E+3 1.1785122E-2
7.1029411E+3 1.2160313E-2
7.1034411E+3 1.2566335E-2
7.1039410E+3 1.3201440E-2
7.1044410E+3 1.3569884E-2
7.1049409E+3 1.4328415E-2
7.1054409E+3 1.4846867E-2
7.1059408E+3 1.5378594E-2
7.1064408E+3 1.6299059E-2
7.1069407E+3 1.6925672E-2
7.1074407E+3 1.7676126E-2
7.1079407E+3 1.8863450E-2
7.1084406E+3 2.0101207E-2
7.1089406E+3 2.1618141E-2
7.1094405E+3 2.3665636E-2
7.1099405E+3 2.6740208E-2
7.1104404E+3 3.1724422E-2
7.1109404E+3 3.7032267E-2
7.1114403E+3 4.0658348E-2
7.1119403E+3 4.2585846E-2
7.1124402E+3 4.4295683E-2
7.1129402E+3 4.7358014E-2
7.1134402E+3 5.0143780E-2
7.1139401E+3 5.2636261E-2
7.1144401E+3 5.6205341E-2
7.1149400E+3 6.1435283E-2
7.1154400E+3 6.9776130E-2
7.1159399E+3 8.2121297E-2
7.1164399E+3 9.9036278E-2
7.1169398E+3 1.2779181E-1
7.1174398E+3 1.6885727E-1
7.1179397E+3 2.1289267E-1
7.1184397E+3 2.7368728E-1
7.1189397E+3 3.5130153E-1
7.1194396E+3 4.5260310E-1
7.1199396E+3 5.8015930E-1
7.1204395E+3 7.0385794E-1
7.1209395E+3 7.9065731E-1
7.1214394E+3 8.4760892E-1
7.1219394E+3 8.8770628E-1
7.1224393E+3 9.4649315E-1
7.1229393E+3 1.0332930E+0
7.1234392E+3 1.1412432E+0
7.1239392E+3 1.2629237E+0
7.1244392E+3 1.3534238E+0
7.1249391E+3 1.3965274E+0
7.1254391E+3 1.4173965E+0
7.1259390E+3 1.4123466E+0
7.1264390E+3 1.3953324E+0
7.1269389E+3 1.3852631E+0
7.1274389E+3 1.4015034E+0
7.1279388E+3 1.4615000E+0
7.1284388E+3 1.5474566E+0
7.1289387E+3 1.6323237E+0
7.1294387E+3 1.6701694E+0
7.1299387E+3 1.6412319E+0
7.1304386E+3 1.5568975E+0
7.1309386E+3 1.4500635E+0
7.1314385E+3 1.3304913E+0
7.1319385E+3 1.2278259E+0
7.1324384E+3 1.1525131E+0
7.1329384E+3 1.0968800E+0
7.1334383E+3 1.0587096E+0
7.1339383E+3 1.0326775E+0
7.1344382E+3 1.0093376E+0
7.1349382E+3 9.8982555E-1
7.1354382E+3 9.6841032E-1
7.1359381E+3 9.4840299E-1
7.1364381E+3 9.2544428E-1
7.1369380E+3 9.0783422E-1
7.1374380E+3 8.9600724E-1
7.1379379E+3 8.9099277E-1
7.1384379E+3 8.9278138E-1
7.1389378E+3 9.0377887E-1
7.1394378E+3 9.2048918E-1
7.1399377E+3 9.3908353E-1
7.1404377E+3 9.6170504E-1
7.1414376E+3 1.0034093E+0
7.1424375E+3 1.0129739E+0
7.1434374E+3 9.9325967E-1
7.1444373E+3 9.6198147E-1
7.1454372E+3 9.2757143E-1
7.1464372E+3 8.9437504E-1
7.1474371E+3 8.5913190E-1
7.1484370E+3 8.2524213E-1
7.1494369E+3 7.9954650E-1
7.1504368E+3 7.8678397E-1
7.1514367E+3 7.8667366E-1
7.1524366E+3 7.9904779E-1
7.1534365E+3 8.1591528E-1
7.1544364E+3 8.3326380E-1
7.1554363E+3 8.5154138E-1
7.1564362E+3 8.6866238E-1
7.1574361E+3 8.8431570E-1
7.1584361E+3 9.0047181E-1
7.1594360E+3 9.1823676E-1
7.1604359E+3 9.3817446E-1
7.1614358E+3 9.6006461E-1
7.1624357E+3 9.8362699E-1
7.1634356E+3 1.0055574E+0
7.1644355E+3 1.0227749E+0
7.1654354E+3 1.0310006E+0
7.1664353E+3 1.0322218E+0
7.1674352E+3 1.0328158E+0
7.1684351E+3 1.0281020E+0
7.1694351E+3 1.0262949E+0
7.1704350E+3 1.0281388E+0
7.1714349E+3 1.0314143E+0
7.1724348E+3 1.0346413E+0
7.1734347E+3 1.0392653E+0
7.1744346E+3 1.0448643E+0
7.1754345E+3 1.0514553E+0
7.1764344E+3 1.0562028E+0
7.1774343E+3 1.0592805E+0
7.1784342E+3 1.0649225E+0
7.1794341E+3 1.0665494E+0
7.1804340E+3 1.0635801E+0
7.1814340E+3 1.0625838E+0
7.1824339E+3 1.0587140E+0
7.1834338E+3 1.0560683E+0
7.1844337E+3 1.0521684E+0
7.1854336E+3 1.0492692E+0
7.1864335E+3 1.0444222E+0
7.1874334E+3 1.0358623E+0
7.1884333E+3 1.0309843E+0
7.1894332E+3 1.0234686E+0
7.1904331E+3 1.0162547E+0
7.1914330E+3 1.0095575E+0
7.1924329E+3 1.0022770E+0
7.1934329E+3 9.9537409E-1
7.1944328E+3 9.8777558E-1
7.1954327E+3 9.8250025E-1
7.1964326E+3 9.7531404E-1
7.1974325E+3 9.6933556E-1
7.1984324E+3 9.6449997E-1
7.1994323E+3 9.5873690E-1
7.2004322E+3 9.5438146E-1
7.2014321E+3 9.5341776E-1
7.2024320E+3 9.4948902E-1
7.2034319E+3 9.4669539E-1
7.2044318E+3 9.4707038E-1
7.2054318E+3 9.4647381E-1
7.2064317E+3 9.4858571E-1
7.2074316E+3 9.5141541E-1
7.2084315E+3 9.5341416E-1
7.2094314E+3 9.5793516E-1
7.2104313E+3 9.6179684E-1
7.2123894E+3 9.7001648E-1
7.2143476E+3 9.7915496E-1
7.2163058E+3 9.8747788E-1
7.2182639E+3 9.9415147E-1
7.2202221E+3 9.9582100E-1
7.2221802E+3 9.9542508E-1
7.2241384E+3 9.9010952E-1
7.2260965E+3 9.8473445E-1
7.2280547E+3 9.7909846E-1
7.2300128E+3 9.7590908E-1
7.2319710E+3 9.7538555E-1
7.2339291E+3 9.7701737E-1
7.2358873E+3 9.8099617E-1
7.2378454E+3 9.8657651E-1
7.2398036E+3 9.9498217E-1
7.2417617E+3 1.0054393E+0
7.2437199E+3 1.0153052E+0
7.2456780E+3 1.0248309E+0
7.2476362E+3 1.0291070E+0
7.2495943E+3 1.0294825E+0
7.2515525E+3 1.0301800E+0
7.2535106E+3 1.0261262E+0
7.2554688E+3 1.0264008E+0
7.2574270E+3 1.0243482E+0
7.2579269E+3 1.0250495E+0
7.2584269E+3 1.0253750E+0
7.2589268E+3 1.0238283E+0
7.2594268E+3 1.0234217E+0
7.2599267E+3 1.0226681E+0
7.2604267E+3 1.0216228E+0
7.2609266E+3 1.0219000E+0
7.2614266E+3 1.0200821E+0
7.2619265E+3 1.0193351E+0
7.2624265E+3 1.0182721E+0
7.2629264E+3 1.0177227E+0
7.2634264E+3 1.0171167E+0
7.2639264E+3 1.0171845E+0
7.2644263E+3 1.0144666E+0
7.2649263E+3 1.0129742E+0
7.2654262E+3 1.0131401E+0
7.2659262E+3 1.0129540E+0
7.2664261E+3 1.0097829E+0
7.2669261E+3 1.0115797E+0
7.2674260E+3 1.0101280E+0
7.2679260E+3 1.0088330E+0
7.2684259E+3 1.0074449E+0
7.2689259E+3 1.0079817E+0
7.2694258E+3 1.0070874E+0
7.2699258E+3 1.0075978E+0
7.2704257E+3 1.0072027E+0
7.2753908E+3 1.0029997E+0
7.2803559E+3 9.9449570E-1
7.2853209E+3 9.8683906E-1
7.2902860E+3 9.8658880E-1
7.2952510E+3 9.8906604E-1
7.3002161E+3 9.9069027E-1
7.3051811E+3 9.9199039E-1
7.3101462E+3 9.9388717E-1
7.3151112E+3 9.9924810E-1
7.3200763E+3 1.0023199E+0
7.3250414E+3 1.0062705E+0
7.3300064E+3 1.0080608E+0
7.3349715E+3 1.0051518E+0
7.3399365E+3 1.0019863E+0
7.3449016E+3 9.9958301E-1
7.3498666E+3 9.9954799E-1
7.3548317E+3 1.0000688E+0
7.3597967E+3 1.0010660E+0
7.3647618E+3 1.0002176E+0
7.3697268E+3 9.9861265E-1
7.3746919E+3 9.9891294E-1
7.3796569E+3 1.0014950E+0
7.3846220E+3 1.0011445E+0
7.3895870E+3 1.0011917E+0
7.3945521E+3 1.0001094E+0
7.3995171E+3 9.9658579E-1
7.4044822E+3 9.9511268E-1
