#%Name: Ferrosilite powder average
#%Formula: (Fe++,Mg)2Si2O6 
#%Mineral class: silicate
#%Xtal system: Orthorhombic 
#%Edge: K
#%Sample prep: powder on kapton tape
#%Beamline: ALS 10.3.2, HxV slits = 200x30 um
#%Det:  I0=N2, Fluorescence mode (Ge solid state, 7 elements)
#%Ref/notes:  MRC, CA-USA. XRD confirmed.
#%Temp: Room temp (28C)
#%Time&date: 2:04 AM 3/15/2007
#%Provider: Sirine Fakra, Matthew A. Marcus.
#%============================================================
7.0102570E+3 2.1064766E-3
7.0152563E+3 2.2425985E-3
7.0202556E+3 2.3747645E-3
7.0252548E+3 2.4169532E-3
7.0302541E+3 2.5996466E-3
7.0352534E+3 2.5461748E-3
7.0402526E+3 2.7509715E-3
7.0452519E+3 2.9019521E-3
7.0502511E+3 3.0020473E-3
7.0552504E+3 3.1918860E-3
7.0602497E+3 3.5560391E-3
7.0652489E+3 3.8720422E-3
7.0702482E+3 4.2287253E-3
7.0752475E+3 4.6844368E-3
7.0802467E+3 5.3290793E-3
7.0852460E+3 6.0945675E-3
7.0902452E+3 7.2417143E-3
7.0952445E+3 9.0556824E-3
7.0957444E+3 9.1301953E-3
7.0962443E+3 9.4132231E-3
7.0967443E+3 9.4294797E-3
7.0972442E+3 9.7538143E-3
7.0977441E+3 9.9759550E-3
7.0982440E+3 1.0237532E-2
7.0987440E+3 1.0619943E-2
7.0992439E+3 1.0658795E-2
7.0997438E+3 1.1020485E-2
7.1002437E+3 1.1285225E-2
7.1007437E+3 1.1714279E-2
7.1012436E+3 1.2064406E-2
7.1017435E+3 1.2314942E-2
7.1022434E+3 1.2831791E-2
7.1027434E+3 1.3416254E-2
7.1032433E+3 1.3781859E-2
7.1037432E+3 1.4129777E-2
7.1042432E+3 1.4712220E-2
7.1047431E+3 1.5330933E-2
7.1052430E+3 1.6002019E-2
7.1057429E+3 1.6709964E-2
7.1062429E+3 1.7498286E-2
7.1067428E+3 1.8407682E-2
7.1072427E+3 1.9304475E-2
7.1077426E+3 2.0357761E-2
7.1082426E+3 2.1653101E-2
7.1087425E+3 2.3453963E-2
7.1092424E+3 2.5586320E-2
7.1097423E+3 2.8725394E-2
7.1102423E+3 3.4721415E-2
7.1107422E+3 4.3760763E-2
7.1112421E+3 5.0963193E-2
7.1117420E+3 5.5621219E-2
7.1122420E+3 5.7779197E-2
7.1127419E+3 5.8367921E-2
7.1132418E+3 5.7210890E-2
7.1137417E+3 5.5265730E-2
7.1142417E+3 5.6376304E-2
7.1147416E+3 6.1444265E-2
7.1152415E+3 6.9918228E-2
7.1157414E+3 8.1923092E-2
7.1162414E+3 1.0252061E-1
7.1167413E+3 1.3832654E-1
7.1172412E+3 1.8461780E-1
7.1177411E+3 2.4583774E-1
7.1182411E+3 3.1387205E-1
7.1187410E+3 4.1395410E-1
7.1192409E+3 5.4311922E-1
7.1197408E+3 6.8257378E-1
7.1202408E+3 8.4269169E-1
7.1207407E+3 9.6435621E-1
7.1212406E+3 1.0199805E+0
7.1217405E+3 1.0383664E+0
7.1222405E+3 1.0577659E+0
7.1227404E+3 1.1004251E+0
7.1232403E+3 1.1644295E+0
7.1237402E+3 1.2247605E+0
7.1242402E+3 1.2815467E+0
7.1247401E+3 1.3237911E+0
7.1252400E+3 1.3438118E+0
7.1257400E+3 1.3364830E+0
7.1262399E+3 1.3119853E+0
7.1267398E+3 1.2750318E+0
7.1272397E+3 1.2445410E+0
7.1277397E+3 1.2370410E+0
7.1282396E+3 1.2629888E+0
7.1287395E+3 1.3110367E+0
7.1292394E+3 1.3767033E+0
7.1297394E+3 1.4405139E+0
7.1302393E+3 1.4665273E+0
7.1307392E+3 1.4567060E+0
7.1312391E+3 1.4153655E+0
7.1317391E+3 1.3407766E+0
7.1322390E+3 1.2547798E+0
7.1327389E+3 1.1853924E+0
7.1332388E+3 1.1220199E+0
7.1337388E+3 1.0736244E+0
7.1342387E+3 1.0369379E+0
7.1347386E+3 1.0141385E+0
7.1352385E+3 9.9590294E-1
7.1357385E+3 9.8022500E-1
7.1362384E+3 9.6019058E-1
7.1367383E+3 9.4465021E-1
7.1372382E+3 9.2961335E-1
7.1377382E+3 9.1942346E-1
7.1382381E+3 9.0907386E-1
7.1387380E+3 9.0174284E-1
7.1392379E+3 8.9713788E-1
7.1397379E+3 8.9689164E-1
7.1402378E+3 9.0239154E-1
7.1412376E+3 9.2417056E-1
7.1422375E+3 9.4404233E-1
7.1432373E+3 9.4603911E-1
7.1442372E+3 9.4186409E-1
7.1452370E+3 9.3761417E-1
7.1462369E+3 9.3105306E-1
7.1472367E+3 9.2051045E-1
7.1482366E+3 9.0473041E-1
7.1492364E+3 8.9084246E-1
7.1502363E+3 8.8140087E-1
7.1512361E+3 8.7698597E-1
7.1522360E+3 8.7710795E-1
7.1532358E+3 8.7828605E-1
7.1542357E+3 8.8022841E-1
7.1552355E+3 8.8461760E-1
7.1562354E+3 8.8939439E-1
7.1572352E+3 8.9862231E-1
7.1582351E+3 9.0706123E-1
7.1592349E+3 9.1820319E-1
7.1602348E+3 9.2743896E-1
7.1612346E+3 9.4104579E-1
7.1622345E+3 9.5346627E-1
7.1632343E+3 9.7127901E-1
7.1642342E+3 9.8658505E-1
7.1652340E+3 1.0008779E+0
7.1662339E+3 1.0105320E+0
7.1672337E+3 1.0168884E+0
7.1682336E+3 1.0222230E+0
7.1692334E+3 1.0251025E+0
7.1702333E+3 1.0286820E+0
7.1712331E+3 1.0346201E+0
7.1722330E+3 1.0358820E+0
7.1732328E+3 1.0372738E+0
7.1742327E+3 1.0351591E+0
7.1752325E+3 1.0326493E+0
7.1762324E+3 1.0297178E+0
7.1772322E+3 1.0272730E+0
7.1782321E+3 1.0268087E+0
7.1792319E+3 1.0266809E+0
7.1802318E+3 1.0273598E+0
7.1812316E+3 1.0264088E+0
7.1822315E+3 1.0269229E+0
7.1832313E+3 1.0265505E+0
7.1842312E+3 1.0254065E+0
7.1852310E+3 1.0245178E+0
7.1862309E+3 1.0195590E+0
7.1872307E+3 1.0170439E+0
7.1882306E+3 1.0113916E+0
7.1892304E+3 1.0079617E+0
7.1902303E+3 1.0056652E+0
7.1912301E+3 1.0025601E+0
7.1922300E+3 1.0029870E+0
7.1932298E+3 1.0039135E+0
7.1942297E+3 1.0056487E+0
7.1952295E+3 1.0066720E+0
7.1962294E+3 1.0067078E+0
7.1972292E+3 1.0074729E+0
7.1982291E+3 1.0077805E+0
7.1992289E+3 1.0088255E+0
7.2002288E+3 1.0048284E+0
7.2012286E+3 1.0026141E+0
7.2022285E+3 9.9804093E-1
7.2032283E+3 9.9414536E-1
7.2042282E+3 9.8998406E-1
7.2052280E+3 9.8591602E-1
7.2062279E+3 9.8293218E-1
7.2072277E+3 9.7995603E-1
7.2082276E+3 9.7819673E-1
7.2092274E+3 9.7531358E-1
7.2102273E+3 9.7428985E-1
7.2122686E+3 9.7495449E-1
7.2143100E+3 9.7591464E-1
7.2163514E+3 9.7863881E-1
7.2183927E+3 9.8233952E-1
7.2204341E+3 9.8259568E-1
7.2224754E+3 9.8412882E-1
7.2245168E+3 9.8267987E-1
7.2265581E+3 9.7967409E-1
7.2285995E+3 9.7562565E-1
7.2306409E+3 9.7221650E-1
7.2326822E+3 9.7128784E-1
7.2347236E+3 9.7207355E-1
7.2367649E+3 9.7788666E-1
7.2388063E+3 9.8247486E-1
7.2408476E+3 9.8950043E-1
7.2428890E+3 9.9728628E-1
7.2449304E+3 1.0037722E+0
7.2469717E+3 1.0112729E+0
7.2490131E+3 1.0172195E+0
7.2510544E+3 1.0194036E+0
7.2530958E+3 1.0201546E+0
7.2551371E+3 1.0194955E+0
7.2571785E+3 1.0164394E+0
7.2592199E+3 1.0162716E+0
7.2597198E+3 1.0178828E+0
7.2602197E+3 1.0157919E+0
7.2607196E+3 1.0167827E+0
7.2612196E+3 1.0164408E+0
7.2617195E+3 1.0158385E+0
7.2622194E+3 1.0169208E+0
7.2627193E+3 1.0161032E+0
7.2632193E+3 1.0164579E+0
7.2637192E+3 1.0136701E+0
7.2642191E+3 1.0153237E+0
7.2647190E+3 1.0180853E+0
7.2652189E+3 1.0173829E+0
7.2657189E+3 1.0189374E+0
7.2662188E+3 1.0180047E+0
7.2667187E+3 1.0182925E+0
7.2672186E+3 1.0175063E+0
7.2677186E+3 1.0155980E+0
7.2682185E+3 1.0181337E+0
7.2687184E+3 1.0145578E+0
7.2692183E+3 1.0137874E+0
7.2742176E+3 1.0081306E+0
7.2792168E+3 1.0068762E+0
7.2842161E+3 1.0017827E+0
7.2892153E+3 9.9467163E-1
7.2942145E+3 9.8811854E-1
7.2992138E+3 9.8536479E-1
7.3042130E+3 9.8428167E-1
7.3092122E+3 9.8471954E-1
7.3142115E+3 9.9161857E-1
7.3192107E+3 9.9581488E-1
7.3242099E+3 9.9703075E-1
7.3292092E+3 1.0001241E+0
7.3342084E+3 9.9936072E-1
7.3392076E+3 9.9691162E-1
7.3442069E+3 9.9517563E-1
7.3492061E+3 9.9571950E-1
7.3542053E+3 9.9463462E-1
7.3592046E+3 9.9592070E-1
7.3642038E+3 9.9218615E-1
7.3692030E+3 9.9475680E-1
7.3742023E+3 9.9408724E-1
7.3792015E+3 9.9202931E-1
7.3842007E+3 9.9404927E-1
7.3891999E+3 9.9442931E-1
