#%Name: Maghemite nano powder
#%Formula: gamma-Fe3+2O3
#%Mineral class: oxides
#%Xtal system:  cubic     
#%Edge: K
#%Sample prep: nano powder on Kapton tape
#%Beamline: ALS 10.3.2, HxV slits = 200x20 um
#%Det:  I0=N2, Fluorescence mode (Ge solid state 7elts)
#%Ref/notes:  MRC, CA-USA. XRD confirmed. Over-absorption corrected.
#%Temp: Room temp (28C)
#%Time&date: 6:20 AM 7/3/2007
#%Provider: Matthew A. Marcus, Sirine Fakra.
#%============================================================
7.0100066E+3 1.3008636E-3
7.0150081E+3 1.2676025E-3
7.0200096E+3 1.4012953E-3
7.0250111E+3 1.3687201E-3
7.0300126E+3 1.4827145E-3
7.0350141E+3 1.5567103E-3
7.0400156E+3 1.6321360E-3
7.0450172E+3 1.8282378E-3
7.0500187E+3 1.8787587E-3
7.0550202E+3 2.0697013E-3
7.0600217E+3 2.1766526E-3
7.0650232E+3 2.3976456E-3
7.0700247E+3 2.8091858E-3
7.0750262E+3 3.1121079E-3
7.0800277E+3 3.7051882E-3
7.0850292E+3 4.2254896E-3
7.0900307E+3 5.0080461E-3
7.0950323E+3 6.3616899E-3
7.1000338E+3 8.1449022E-3
7.1005339E+3 8.3578735E-3
7.1010341E+3 8.5095725E-3
7.1015342E+3 8.6762463E-3
7.1020344E+3 9.0579738E-3
7.1025345E+3 9.2831028E-3
7.1030347E+3 9.6193633E-3
7.1035348E+3 9.8628340E-3
7.1040350E+3 1.0180513E-2
7.1045351E+3 1.0386116E-2
7.1050353E+3 1.1052578E-2
7.1055355E+3 1.1529281E-2
7.1060356E+3 1.2050395E-2
7.1065358E+3 1.2378185E-2
7.1070359E+3 1.3171965E-2
7.1075361E+3 1.3657637E-2
7.1080362E+3 1.4476360E-2
7.1085364E+3 1.5504986E-2
7.1090365E+3 1.6594136E-2
7.1095367E+3 1.8050181E-2
7.1100368E+3 1.9940670E-2
7.1105370E+3 2.2958282E-2
7.1110371E+3 2.7349793E-2
7.1115373E+3 3.5642680E-2
7.1120374E+3 5.0382320E-2
7.1125376E+3 7.0824214E-2
7.1130377E+3 9.2282370E-2
7.1135379E+3 9.5804412E-2
7.1140380E+3 8.5603494E-2
7.1145382E+3 7.5555761E-2
7.1150383E+3 7.2389221E-2
7.1155385E+3 7.3038629E-2
7.1160386E+3 7.5340642E-2
7.1165388E+3 7.7780295E-2
7.1170389E+3 8.1237130E-2
7.1175391E+3 8.4852506E-2
7.1180393E+3 9.3082805E-2
7.1185394E+3 1.0398065E-1
7.1190396E+3 1.2177147E-1
7.1195397E+3 1.4746953E-1
7.1200399E+3 1.8256838E-1
7.1205400E+3 2.2654419E-1
7.1210402E+3 2.8088530E-1
7.1215403E+3 3.3351941E-1
7.1220405E+3 3.9646445E-1
7.1225406E+3 4.5025794E-1
7.1230408E+3 4.9908887E-1
7.1235409E+3 5.4943470E-1
7.1240411E+3 6.0141442E-1
7.1245412E+3 6.6238998E-1
7.1250414E+3 7.2799487E-1
7.1255415E+3 7.9663573E-1
7.1260417E+3 8.7771602E-1
7.1265418E+3 9.4853467E-1
7.1270420E+3 1.0091076E+0
7.1275421E+3 1.0583345E+0
7.1280423E+3 1.0976985E+0
7.1285424E+3 1.1426400E+0
7.1290426E+3 1.1901953E+0
7.1295428E+3 1.2466334E+0
7.1300429E+3 1.3104980E+0
7.1305431E+3 1.3714477E+0
7.1310432E+3 1.4204005E+0
7.1315434E+3 1.4479144E+0
7.1320435E+3 1.4623088E+0
7.1325437E+3 1.4487817E+0
7.1330438E+3 1.4125418E+0
7.1335440E+3 1.3741475E+0
7.1340441E+3 1.3307857E+0
7.1345443E+3 1.2902709E+0
7.1350444E+3 1.2561491E+0
7.1355446E+3 1.2360383E+0
7.1360447E+3 1.2190480E+0
7.1365449E+3 1.2085531E+0
7.1370450E+3 1.2006149E+0
7.1375452E+3 1.1901978E+0
7.1380453E+3 1.1851189E+0
7.1385455E+3 1.1775967E+0
7.1390457E+3 1.1686629E+0
7.1395458E+3 1.1567776E+0
7.1400460E+3 1.1420745E+0
7.1405461E+3 1.1222998E+0
7.1410463E+3 1.1057056E+0
7.1415464E+3 1.0874471E+0
7.1420466E+3 1.0757006E+0
7.1425467E+3 1.0643780E+0
7.1430469E+3 1.0601683E+0
7.1450653E+3 1.0728551E+0
7.1470838E+3 1.0682806E+0
7.1491023E+3 1.0100739E+0
7.1511208E+3 9.4411595E-1
7.1531392E+3 9.0991193E-1
7.1551577E+3 8.8348329E-1
7.1571762E+3 8.5753075E-1
7.1591947E+3 8.3483968E-1
7.1612131E+3 8.2886696E-1
7.1632316E+3 8.3333510E-1
7.1652501E+3 8.4755796E-1
7.1672686E+3 8.6566578E-1
7.1692870E+3 8.8852728E-1
7.1713055E+3 9.1972167E-1
7.1733240E+3 9.5350806E-1
7.1753425E+3 9.8323410E-1
7.1773609E+3 1.0001164E+0
7.1793794E+3 1.0149446E+0
7.1813979E+3 1.0369667E+0
7.1834164E+3 1.0476127E+0
7.1854348E+3 1.0502949E+0
7.1874533E+3 1.0482185E+0
7.1894718E+3 1.0465433E+0
7.1914903E+3 1.0415217E+0
7.1935088E+3 1.0371730E+0
7.1955272E+3 1.0307155E+0
7.1975457E+3 1.0187181E+0
7.1995642E+3 1.0124368E+0
7.2015827E+3 1.0038011E+0
7.2036011E+3 9.9536587E-1
7.2056196E+3 9.9007204E-1
7.2076381E+3 9.8072988E-1
7.2096566E+3 9.7353767E-1
7.2116751E+3 9.7292679E-1
7.2136935E+3 9.7686676E-1
7.2157120E+3 9.7821066E-1
7.2177305E+3 9.8148351E-1
7.2197490E+3 9.8641968E-1
7.2217675E+3 9.8954032E-1
7.2237859E+3 9.9483099E-1
7.2258044E+3 9.9499167E-1
7.2278229E+3 9.9612358E-1
7.2298414E+3 9.9500700E-1
7.2318599E+3 9.9237518E-1
7.2338783E+3 9.8407133E-1
7.2358968E+3 9.7742423E-1
7.2379153E+3 9.7249587E-1
7.2399338E+3 9.6325663E-1
7.2419523E+3 9.5758013E-1
7.2439708E+3 9.5027921E-1
7.2459892E+3 9.4484054E-1
7.2480077E+3 9.4591169E-1
7.2500262E+3 9.5093862E-1
7.2520447E+3 9.5302373E-1
7.2540632E+3 9.6194786E-1
7.2560816E+3 9.7051207E-1
7.2565818E+3 9.7230530E-1
7.2570820E+3 9.7447433E-1
7.2575821E+3 9.7792291E-1
7.2580823E+3 9.7818402E-1
7.2585824E+3 9.8304566E-1
7.2590826E+3 9.8531136E-1
7.2595827E+3 9.8514198E-1
7.2600829E+3 9.9307117E-1
7.2605830E+3 9.9246516E-1
7.2610832E+3 9.9536598E-1
7.2615834E+3 9.9565901E-1
7.2620835E+3 9.9812421E-1
7.2625837E+3 9.9926098E-1
7.2630838E+3 1.0002213E+0
7.2635840E+3 9.9800932E-1
7.2640841E+3 9.9878287E-1
7.2645843E+3 1.0071275E+0
7.2650844E+3 1.0117463E+0
7.2655846E+3 1.0128351E+0
7.2660848E+3 1.0145721E+0
7.2665849E+3 1.0137162E+0
7.2670851E+3 1.0157166E+0
7.2675852E+3 1.0186746E+0
7.2680854E+3 1.0194935E+0
7.2685855E+3 1.0187412E+0
7.2690857E+3 1.0201023E+0
7.2695858E+3 1.0222495E+0
7.2700860E+3 1.0201104E+0
7.2705862E+3 1.0235249E+0
7.2710863E+3 1.0225875E+0
7.2735081E+3 1.0237055E+0
7.2759299E+3 1.0271458E+0
7.2783517E+3 1.0253432E+0
7.2807735E+3 1.0253419E+0
7.2831953E+3 1.0209519E+0
7.2856171E+3 1.0175550E+0
7.2880389E+3 1.0122285E+0
7.2904608E+3 1.0059476E+0
7.2928826E+3 9.9821741E-1
7.2953044E+3 9.9292148E-1
7.2977262E+3 9.8967900E-1
7.3001480E+3 9.8742652E-1
7.3025698E+3 9.8379565E-1
7.3049916E+3 9.8199035E-1
7.3074134E+3 9.8187571E-1
7.3098352E+3 9.8087657E-1
7.3122570E+3 9.7967204E-1
7.3146788E+3 9.8164839E-1
7.3171006E+3 9.8552856E-1
7.3195225E+3 9.9056092E-1
7.3219443E+3 9.9386959E-1
7.3243661E+3 9.9757896E-1
7.3267879E+3 1.0005158E+0
7.3292097E+3 1.0025733E+0
7.3316315E+3 1.0032583E+0
7.3340533E+3 1.0031425E+0
7.3364751E+3 1.0030610E+0
7.3388969E+3 1.0012613E+0
7.3413188E+3 9.9930350E-1
7.3437406E+3 9.9719365E-1
7.3461624E+3 9.9470733E-1
7.3485842E+3 9.9317702E-1
7.3510060E+3 9.9036901E-1
7.3534278E+3 9.8935892E-1
7.3558496E+3 9.8709588E-1
7.3582715E+3 9.8571600E-1
7.3606933E+3 9.8636082E-1
7.3631151E+3 9.8542466E-1
7.3659365E+3 9.8596852E-1
7.3687579E+3 9.8815522E-1
7.3715793E+3 9.8968277E-1
7.3744007E+3 9.9242443E-1
7.3772221E+3 9.9226697E-1
7.3800435E+3 9.9285543E-1
7.3828649E+3 9.9499576E-1
7.3856863E+3 9.9366345E-1
7.3885077E+3 9.9510898E-1
7.3913291E+3 9.9524038E-1
7.3941505E+3 9.9702833E-1
7.3969719E+3 9.9788113E-1
7.3997933E+3 9.9743170E-1
7.4026147E+3 9.9898338E-1
7.4054361E+3 9.9952712E-1
7.4082575E+3 9.9970823E-1
7.4110789E+3 9.9844211E-1
7.4139003E+3 9.9787431E-1
7.4167218E+3 9.9591945E-1
7.4195432E+3 9.9402757E-1
7.4223646E+3 9.9401954E-1
7.4251860E+3 9.9293946E-1
7.4280074E+3 9.9225140E-1
7.4308288E+3 9.9079121E-1
7.4336502E+3 9.8941542E-1
7.4364716E+3 9.9072280E-1
7.4392930E+3 9.9007184E-1
7.4421144E+3 9.8953090E-1
7.4449358E+3 9.9274600E-1
7.4477572E+3 9.9232422E-1
7.4505787E+3 9.9321011E-1
7.4534001E+3 9.9535451E-1
7.4562215E+3 9.9270719E-1
7.4590429E+3 9.9561131E-1
7.4618643E+3 9.9548183E-1
7.4646857E+3 9.9451702E-1
7.4675071E+3 9.9312571E-1
7.4703285E+3 9.9333240E-1
7.4731500E+3 9.9253139E-1
7.4764844E+3 9.9357889E-1
7.4798188E+3 9.9372526E-1
7.4831532E+3 9.9384785E-1
7.4864876E+3 9.9134367E-1
7.4898220E+3 9.9311794E-1
7.4931564E+3 9.9276224E-1
7.4964908E+3 9.9282305E-1
7.4998252E+3 9.9222315E-1
7.5031596E+3 9.9164828E-1
7.5064940E+3 9.9180167E-1
7.5098284E+3 9.9285720E-1
7.5131628E+3 9.9171932E-1
7.5164972E+3 9.9235572E-1
7.5198316E+3 9.9135959E-1
7.5231660E+3 9.9194302E-1
7.5265004E+3 9.9295456E-1
7.5298348E+3 9.9116283E-1
7.5331692E+3 9.9302630E-1
7.5365036E+3 9.9374245E-1
7.5398380E+3 9.9313724E-1
7.5431724E+3 9.9381010E-1
7.5465068E+3 9.9416472E-1
7.5498412E+3 9.9446127E-1
7.5531756E+3 9.9475366E-1
7.5565101E+3 9.9462455E-1
7.5598445E+3 9.9388279E-1
7.5631789E+3 9.9374570E-1
7.5665133E+3 9.9386089E-1
7.5698477E+3 9.9504891E-1
7.5731821E+3 9.9468178E-1
7.5765165E+3 9.9513203E-1
7.5798509E+3 9.9593184E-1
7.5831854E+3 9.9648697E-1
7.5869366E+3 9.9543367E-1
7.5906878E+3 9.9592343E-1
7.5944390E+3 9.9545843E-1
7.5981902E+3 9.9548842E-1
7.6019414E+3 9.9519711E-1
7.6056927E+3 9.9508877E-1
7.6094439E+3 9.9414164E-1
7.6131951E+3 9.9434534E-1
7.6169463E+3 9.9457981E-1
7.6206975E+3 9.9638757E-1
7.6244488E+3 9.9590776E-1
7.6282000E+3 9.9674202E-1
7.6319512E+3 9.9692664E-1
7.6357024E+3 9.9649788E-1
7.6394537E+3 9.9686824E-1
