#%Name: Pyrite
#%Formula: FeS2
#%Mineral class: sulfides
#%Xtal system: cubic 
#%Edge: K
#%Sample prep: powder on kapton tape
#%Beamline: ALS 10.3.2, HxV slits = 200x30 um
#%Det:  I0=N2, Fluorescence mode (Ge solid state 7elts)
#%Ref/notes:  10.3.2 XRD confirmed.
#%Temp: Room temp (28C)
#%Time&date: 10:41 PM 8/16/2006
#%Provider: Sirine Fakra, Matthew A. Marcus.
#%============================================================
7.0142200E+3 1.8168625E-3
7.0192203E+3 1.8175011E-3
7.0242206E+3 1.8828547E-3
7.0292209E+3 1.9736957E-3
7.0342213E+3 2.0693636E-3
7.0392216E+3 2.2968460E-3
7.0442219E+3 2.3408116E-3
7.0492223E+3 2.5573041E-3
7.0542226E+3 2.8387689E-3
7.0592229E+3 2.9981166E-3
7.0642232E+3 3.3530185E-3
7.0692236E+3 3.7543476E-3
7.0742239E+3 4.2418658E-3
7.0792242E+3 4.7942016E-3
7.0842246E+3 5.6807969E-3
7.0892249E+3 6.8644340E-3
7.0942252E+3 8.7010132E-3
7.0992256E+3 1.0920266E-2
7.0997256E+3 1.1163624E-2
7.1002256E+3 1.1605298E-2
7.1007257E+3 1.2010043E-2
7.1012257E+3 1.2467867E-2
7.1017257E+3 1.2765259E-2
7.1022258E+3 1.3366128E-2
7.1027258E+3 1.3934339E-2
7.1032258E+3 1.4232441E-2
7.1037259E+3 1.4946027E-2
7.1042259E+3 1.5592306E-2
7.1047259E+3 1.6330678E-2
7.1052260E+3 1.6917504E-2
7.1057260E+3 1.7812540E-2
7.1062260E+3 1.8841868E-2
7.1067261E+3 2.0313608E-2
7.1072261E+3 2.1725544E-2
7.1077261E+3 2.3530158E-2
7.1082262E+3 2.5637343E-2
7.1087262E+3 2.8249110E-2
7.1092262E+3 3.2540123E-2
7.1097263E+3 3.8127286E-2
7.1102263E+3 4.9127573E-2
7.1107263E+3 7.0602474E-2
7.1112264E+3 9.5555043E-2
7.1117264E+3 1.1486823E-1
7.1122264E+3 1.2309369E-1
7.1127265E+3 1.2331498E-1
7.1132265E+3 1.2308399E-1
7.1137265E+3 1.2109897E-1
7.1142266E+3 1.2011452E-1
7.1147266E+3 1.2911665E-1
7.1152266E+3 1.5791033E-1
7.1157267E+3 2.0200264E-1
7.1162267E+3 2.9532177E-1
7.1167267E+3 4.1530868E-1
7.1172268E+3 5.2511192E-1
7.1177268E+3 6.0528704E-1
7.1182268E+3 6.7157345E-1
7.1187269E+3 7.3913601E-1
7.1192269E+3 7.7607009E-1
7.1197269E+3 7.8012943E-1
7.1202270E+3 7.6366011E-1
7.1207270E+3 7.4294399E-1
7.1212270E+3 7.3566379E-1
7.1217271E+3 7.4070291E-1
7.1222271E+3 7.4974251E-1
7.1227271E+3 7.5684968E-1
7.1232272E+3 7.6513790E-1
7.1237272E+3 7.7023826E-1
7.1242272E+3 7.7253305E-1
7.1247273E+3 7.7276616E-1
7.1252273E+3 7.7537712E-1
7.1257273E+3 7.8610676E-1
7.1262274E+3 7.9830162E-1
7.1267274E+3 8.1511828E-1
7.1272274E+3 8.3245487E-1
7.1277275E+3 8.5009624E-1
7.1282275E+3 8.6858029E-1
7.1287275E+3 8.8461737E-1
7.1292276E+3 9.0627892E-1
7.1297276E+3 9.2621644E-1
7.1302276E+3 9.4776212E-1
7.1307276E+3 9.6800611E-1
7.1312277E+3 9.8991991E-1
7.1317277E+3 1.0053981E+0
7.1322277E+3 1.0176633E+0
7.1327278E+3 1.0305193E+0
7.1332278E+3 1.0444183E+0
7.1337278E+3 1.0563245E+0
7.1342279E+3 1.0654998E+0
7.1347279E+3 1.0726219E+0
7.1352279E+3 1.0772145E+0
7.1357280E+3 1.0826371E+0
7.1362280E+3 1.0860042E+0
7.1367280E+3 1.0888262E+0
7.1372281E+3 1.0891367E+0
7.1377281E+3 1.0872478E+0
7.1382281E+3 1.0865225E+0
7.1387282E+3 1.0849673E+0
7.1392282E+3 1.0828781E+0
7.1397282E+3 1.0811452E+0
7.1402283E+3 1.0823722E+0
7.1407283E+3 1.0788045E+0
7.1412283E+3 1.0772086E+0
7.1417284E+3 1.0741858E+0
7.1422284E+3 1.0670464E+0
7.1442464E+3 1.0305582E+0
7.1462644E+3 9.9996015E-1
7.1482824E+3 9.7774668E-1
7.1503004E+3 9.5966313E-1
7.1523184E+3 9.4345031E-1
7.1543364E+3 9.3308649E-1
7.1563544E+3 9.2598252E-1
7.1583723E+3 9.0098790E-1
7.1603903E+3 8.7614957E-1
7.1624083E+3 8.6418122E-1
7.1644263E+3 8.7646123E-1
7.1664443E+3 8.9677455E-1
7.1684623E+3 9.1434728E-1
7.1704803E+3 9.2102415E-1
7.1724983E+3 9.3275175E-1
7.1745163E+3 9.4391986E-1
7.1765343E+3 9.5831298E-1
7.1785523E+3 9.7639760E-1
7.1805703E+3 9.8889668E-1
7.1825883E+3 9.9772751E-1
7.1846062E+3 1.0073832E+0
7.1866242E+3 1.0227742E+0
7.1886422E+3 1.0302979E+0
7.1906602E+3 1.0410809E+0
7.1926782E+3 1.0557316E+0
7.1946962E+3 1.0735315E+0
7.1967142E+3 1.0870797E+0
7.1987322E+3 1.0965074E+0
7.2007502E+3 1.0941436E+0
7.2027682E+3 1.0742465E+0
7.2047862E+3 1.0456538E+0
7.2068042E+3 1.0178750E+0
7.2088222E+3 9.9244955E-1
7.2108402E+3 9.7187975E-1
7.2128581E+3 9.5373052E-1
7.2148761E+3 9.3321409E-1
7.2168941E+3 9.1520714E-1
7.2189121E+3 9.0796378E-1
7.2209301E+3 8.9983076E-1
7.2229481E+3 9.0138399E-1
7.2249661E+3 9.0888087E-1
7.2269841E+3 9.1837098E-1
7.2290021E+3 9.3409487E-1
7.2310201E+3 9.4598044E-1
7.2330381E+3 9.5631892E-1
7.2350561E+3 9.6446934E-1
7.2370741E+3 9.7329004E-1
7.2390921E+3 9.8309610E-1
7.2411100E+3 9.9426434E-1
7.2431280E+3 1.0047595E+0
7.2451460E+3 1.0103355E+0
7.2471640E+3 1.0225383E+0
7.2491820E+3 1.0319301E+0
7.2512000E+3 1.0340111E+0
7.2532180E+3 1.0242276E+0
7.2552360E+3 1.0125775E+0
7.2557360E+3 1.0101918E+0
7.2562361E+3 1.0079495E+0
7.2567361E+3 1.0048072E+0
7.2572361E+3 1.0037881E+0
7.2577362E+3 1.0004829E+0
7.2582362E+3 9.9589679E-1
7.2587362E+3 9.9426262E-1
7.2592363E+3 9.9547734E-1
7.2597363E+3 9.9537405E-1
7.2602363E+3 9.9525344E-1
7.2607364E+3 9.9466707E-1
7.2612364E+3 9.9758017E-1
7.2617364E+3 9.9731965E-1
7.2622365E+3 9.9849486E-1
7.2627365E+3 9.9890364E-1
7.2632365E+3 9.9725804E-1
7.2637366E+3 9.9752286E-1
7.2642366E+3 9.9917103E-1
7.2647366E+3 1.0036927E+0
7.2652367E+3 1.0076581E+0
7.2677368E+3 1.0192227E+0
7.2702370E+3 1.0315260E+0
7.2727372E+3 1.0351910E+0
7.2752374E+3 1.0352713E+0
7.2777375E+3 1.0342255E+0
7.2802377E+3 1.0293162E+0
7.2827379E+3 1.0210549E+0
7.2852380E+3 1.0153677E+0
7.2877382E+3 1.0153035E+0
7.2902384E+3 1.0107497E+0
7.2927385E+3 1.0052150E+0
7.2952387E+3 9.9939865E-1
7.2977389E+3 9.8745089E-1
7.3002391E+3 9.7359103E-1
7.3027392E+3 9.6658904E-1
7.3052394E+3 9.5852527E-1
7.3077396E+3 9.6352083E-1
7.3102397E+3 9.6752975E-1
7.3127399E+3 9.6645206E-1
7.3152401E+3 9.6497444E-1
7.3177403E+3 9.6614600E-1
7.3202404E+3 9.6795393E-1
7.3227406E+3 9.7281865E-1
7.3252408E+3 9.8176582E-1
7.3277409E+3 9.9578527E-1
7.3302411E+3 1.0035114E+0
7.3327413E+3 1.0160000E+0
7.3352414E+3 1.0252512E+0
7.3377416E+3 1.0268391E+0
7.3402418E+3 1.0265141E+0
7.3427420E+3 1.0253086E+0
7.3452421E+3 1.0250355E+0
7.3477423E+3 1.0197449E+0
7.3502425E+3 1.0156703E+0
7.3527426E+3 1.0152247E+0
7.3552428E+3 1.0146783E+0
7.3577430E+3 1.0162136E+0
7.3602432E+3 1.0164529E+0
7.3627433E+3 1.0186969E+0
7.3652435E+3 1.0214175E+0
7.3677437E+3 1.0233118E+0
7.3702438E+3 1.0202723E+0
7.3727440E+3 1.0167062E+0
7.3752442E+3 1.0115861E+0
7.3777444E+3 1.0074359E+0
7.3802445E+3 1.0053827E+0
7.3827447E+3 1.0042324E+0
7.3852449E+3 1.0025664E+0
7.3877451E+3 1.0047174E+0
7.3902452E+3 1.0051670E+0
7.3927454E+3 1.0088563E+0
7.3952456E+3 1.0049300E+0
7.3977457E+3 1.0020465E+0
7.4002459E+3 9.9805147E-1
7.4027461E+3 9.9164655E-1
7.4052463E+3 9.8946600E-1
7.4077464E+3 9.8919736E-1
7.4102466E+3 9.9278913E-1
