#%Name: Aegirine ITFA component 0
#%Empirical formula: NaFe3+(Si2O6)/ Webmineral
#%Mineral group: clinopyroxenes, inosilicate
#%Xtal system: monoclinic
#%Edge: K
#%Sample prep: powder on kapton tape
#%Beamline: ALS 10.3.2, HxV slits = 200x20 um
#%Det:  I0=N2, Fluorescence mode (Ge solid state 7elts).
#%Ref/notes:  Mineralogical Research Company, San Jose, CA-USA. XRD confirmed. Transmission data were used to correct for overabsorption effects.
#%Temp: Room temp (28 degC)
#%Time&date: 9:06 PM 03/14/2007
#%Provider: Matthew A. Marcus, Sirine Fakra.
#%============================================================
7.0106674E+3 2.3180272E-3
7.0156673E+3 2.5279462E-3
7.0206671E+3 2.2832581E-3
7.0256670E+3 2.4201293E-3
7.0306669E+3 2.3859417E-3
7.0356668E+3 2.3650246E-3
7.0406666E+3 2.2788428E-3
7.0456665E+3 2.7821886E-3
7.0506664E+3 2.7572419E-3
7.0556663E+3 2.8842130E-3
7.0606661E+3 3.0881155E-3
7.0656660E+3 3.2444841E-3
7.0706659E+3 3.9408576E-3
7.0756658E+3 4.2509642E-3
7.0806656E+3 4.9113801E-3
7.0856655E+3 5.1978805E-3
7.0906654E+3 6.5259408E-3
7.0956653E+3 8.0968328E-3
7.0961653E+3 8.4119255E-3
7.0966652E+3 8.1154013E-3
7.0971652E+3 8.5520165E-3
7.0976652E+3 8.7803850E-3
7.0981652E+3 8.8099724E-3
7.0986652E+3 9.4199079E-3
7.0991652E+3 9.6164795E-3
7.0996652E+3 9.8003321E-3
7.1001652E+3 9.9672280E-3
7.1006651E+3 1.0056033E-2
7.1011651E+3 1.0677591E-2
7.1016651E+3 1.0697020E-2
7.1021651E+3 1.1168302E-2
7.1026651E+3 1.1610054E-2
7.1031651E+3 1.2198256E-2
7.1036651E+3 1.2105056E-2
7.1041651E+3 1.2697890E-2
7.1046650E+3 1.3016530E-2
7.1051650E+3 1.3755195E-2
7.1056650E+3 1.4181006E-2
7.1061650E+3 1.4770022E-2
7.1066650E+3 1.5513437E-2
7.1071650E+3 1.5943527E-2
7.1076650E+3 1.6786553E-2
7.1081650E+3 1.7914460E-2
7.1086649E+3 1.8314238E-2
7.1091649E+3 1.9922675E-2
7.1096649E+3 2.1922953E-2
7.1101649E+3 2.6199764E-2
7.1106649E+3 2.9853124E-2
7.1111649E+3 3.4418370E-2
7.1116649E+3 3.6982282E-2
7.1121649E+3 4.3197892E-2
7.1126648E+3 4.8750618E-2
7.1131648E+3 5.0049123E-2
7.1136648E+3 5.1322982E-2
7.1141648E+3 5.2168802E-2
7.1146648E+3 5.0707661E-2
7.1151648E+3 4.9573546E-2
7.1156648E+3 5.2591066E-2
7.1161648E+3 5.8059269E-2
7.1166648E+3 6.6917879E-2
7.1171647E+3 8.0729873E-2
7.1176647E+3 1.0004624E-1
7.1181647E+3 1.3340773E-1
7.1186647E+3 1.7839670E-1
7.1191647E+3 2.4000211E-1
7.1196647E+3 3.0826972E-1
7.1201647E+3 3.5784236E-1
7.1206647E+3 4.0440948E-1
7.1211646E+3 4.4970811E-1
7.1216646E+3 5.0228104E-1
7.1221646E+3 5.6869663E-1
7.1226646E+3 6.5673355E-1
7.1231646E+3 7.3762274E-1
7.1236646E+3 8.3197752E-1
7.1241646E+3 9.0831898E-1
7.1246646E+3 9.6796052E-1
7.1251645E+3 1.0059619E+0
7.1256645E+3 1.0332083E+0
7.1261645E+3 1.0734746E+0
7.1266645E+3 1.1242867E+0
7.1271645E+3 1.1849231E+0
7.1276645E+3 1.2460404E+0
7.1281645E+3 1.2862413E+0
7.1286645E+3 1.3184564E+0
7.1291644E+3 1.3379835E+0
7.1296644E+3 1.3415387E+0
7.1301644E+3 1.3451039E+0
7.1306644E+3 1.3488741E+0
7.1311644E+3 1.3430754E+0
7.1316644E+3 1.3438167E+0
7.1321644E+3 1.3339563E+0
7.1326644E+3 1.3230509E+0
7.1331643E+3 1.3032829E+0
7.1336643E+3 1.2761697E+0
7.1341643E+3 1.2548238E+0
7.1346643E+3 1.2300202E+0
7.1351643E+3 1.2103612E+0
7.1356643E+3 1.1861761E+0
7.1361643E+3 1.1692873E+0
7.1366643E+3 1.1463218E+0
7.1371642E+3 1.1288712E+0
7.1376642E+3 1.1076364E+0
7.1381642E+3 1.0958916E+0
7.1386642E+3 1.0871957E+0
7.1391642E+3 1.0730300E+0
7.1396642E+3 1.0730035E+0
7.1401642E+3 1.0687499E+0
7.1406642E+3 1.0629010E+0
7.1416641E+3 1.0515476E+0
7.1426641E+3 1.0441616E+0
7.1436641E+3 1.0321292E+0
7.1446640E+3 1.0185244E+0
7.1456640E+3 1.0041273E+0
7.1466640E+3 9.8203813E-1
7.1476640E+3 9.5281922E-1
7.1486639E+3 9.2553957E-1
7.1496639E+3 9.0051435E-1
7.1506639E+3 8.7465799E-1
7.1516639E+3 8.5598520E-1
7.1526638E+3 8.4090099E-1
7.1536638E+3 8.3194141E-1
7.1546638E+3 8.2510164E-1
7.1556638E+3 8.2119285E-1
7.1566637E+3 8.2440128E-1
7.1576637E+3 8.2537450E-1
7.1586637E+3 8.3386267E-1
7.1596637E+3 8.4347074E-1
7.1606636E+3 8.5410972E-1
7.1616636E+3 8.6952044E-1
7.1626636E+3 8.8395883E-1
7.1636636E+3 9.0132353E-1
7.1646635E+3 9.2021514E-1
7.1656635E+3 9.3754771E-1
7.1666635E+3 9.5693110E-1
7.1676635E+3 9.7507174E-1
7.1686634E+3 9.9265348E-1
7.1696634E+3 1.0055593E+0
7.1706634E+3 1.0182112E+0
7.1716634E+3 1.0269810E+0
7.1726633E+3 1.0349539E+0
7.1736633E+3 1.0420475E+0
7.1746633E+3 1.0504637E+0
7.1756633E+3 1.0548448E+0
7.1766632E+3 1.0544432E+0
7.1776632E+3 1.0528047E+0
7.1786632E+3 1.0525403E+0
7.1796632E+3 1.0478391E+0
7.1806631E+3 1.0394137E+0
7.1816631E+3 1.0342279E+0
7.1826631E+3 1.0291681E+0
7.1836631E+3 1.0261720E+0
7.1846630E+3 1.0220879E+0
7.1856630E+3 1.0174040E+0
7.1866630E+3 1.0143164E+0
7.1876630E+3 1.0150610E+0
7.1886629E+3 1.0119558E+0
7.1896629E+3 1.0182918E+0
7.1906629E+3 1.0166362E+0
7.1916629E+3 1.0140688E+0
7.1926628E+3 1.0166847E+0
7.1936628E+3 1.0175794E+0
7.1946628E+3 1.0139932E+0
7.1956628E+3 1.0143831E+0
7.1966627E+3 1.0126463E+0
7.1976627E+3 1.0110313E+0
7.1986627E+3 1.0087011E+0
7.1996627E+3 1.0095871E+0
7.2006626E+3 1.0060677E+0
7.2016626E+3 1.0037683E+0
7.2026626E+3 1.0012421E+0
7.2036626E+3 9.9717563E-1
7.2046625E+3 9.9296992E-1
7.2056625E+3 9.9281289E-1
7.2066625E+3 9.9388279E-1
7.2076625E+3 9.8858261E-1
7.2086624E+3 9.8766590E-1
7.2096624E+3 9.8840654E-1
7.2106624E+3 9.8429244E-1
7.2127040E+3 9.8120752E-1
7.2147456E+3 9.7273389E-1
7.2167872E+3 9.7269735E-1
7.2188288E+3 9.6645705E-1
7.2208705E+3 9.6478141E-1
7.2229121E+3 9.6152922E-1
7.2249537E+3 9.5656011E-1
7.2269953E+3 9.5698468E-1
7.2290369E+3 9.5872671E-1
7.2310785E+3 9.6158473E-1
7.2331202E+3 9.6791524E-1
7.2351618E+3 9.6729291E-1
7.2372034E+3 9.7490689E-1
7.2392450E+3 9.7863449E-1
7.2412866E+3 9.8347015E-1
7.2433282E+3 9.9029175E-1
7.2453698E+3 9.9692200E-1
7.2474115E+3 1.0057003E+0
7.2494531E+3 1.0121496E+0
7.2514947E+3 1.0185417E+0
7.2535363E+3 1.0214724E+0
7.2555779E+3 1.0220341E+0
7.2576195E+3 1.0216437E+0
7.2596611E+3 1.0199724E+0
7.2601611E+3 1.0193620E+0
7.2606611E+3 1.0203483E+0
7.2611611E+3 1.0179927E+0
7.2616611E+3 1.0193851E+0
7.2621611E+3 1.0198060E+0
7.2626611E+3 1.0174502E+0
7.2631611E+3 1.0156811E+0
7.2636610E+3 1.0138038E+0
7.2641610E+3 1.0093305E+0
7.2646610E+3 1.0132465E+0
7.2651610E+3 1.0128449E+0
7.2656610E+3 1.0190399E+0
7.2661610E+3 1.0110731E+0
7.2666610E+3 1.0090063E+0
7.2671610E+3 1.0107194E+0
7.2676609E+3 1.0118616E+0
7.2681609E+3 1.0101448E+0
7.2686609E+3 1.0099701E+0
7.2691609E+3 1.0080051E+0
7.2696609E+3 1.0049119E+0
7.2746608E+3 9.9446692E-1
7.2796606E+3 9.9198978E-1
7.2846605E+3 9.9184244E-1
7.2896604E+3 9.9210318E-1
7.2946603E+3 9.8617708E-1
7.2996601E+3 9.8905477E-1
7.3046600E+3 9.8703458E-1
7.3096599E+3 9.8921280E-1
7.3146597E+3 9.9154412E-1
7.3196596E+3 9.9384575E-1
7.3246595E+3 9.9173734E-1
7.3296594E+3 9.9668695E-1
7.3346592E+3 9.8955568E-1
7.3396591E+3 9.8329674E-1
7.3446590E+3 9.8800581E-1
7.3496588E+3 9.9397510E-1
7.3546587E+3 9.9194903E-1
7.3596586E+3 9.9767938E-1
7.3646585E+3 9.9858283E-1
7.3696583E+3 9.9853791E-1
7.3746582E+3 9.9725265E-1
7.3796581E+3 9.9806569E-1
7.3846579E+3 9.9608926E-1
7.3896578E+3 9.9616209E-1
7.3946577E+3 9.9730052E-1
7.3996575E+3 9.9141759E-1
7.4046574E+3 9.8653854E-1
7.4096573E+3 9.8224944E-1
