#%Name: Aegirine ITFA component 1
#%Empirical formula: NaFe3+(Si2O6)/ Webmineral
#%Mineral group: clinopyroxenes, inosilicate
#%Xtal system: monoclinic
#%Edge: K
#%Sample prep: powder on kapton tape
#%Beamline: ALS 10.3.2, HxV slits = 200x20 um
#%Det:  I0=N2, Fluorescence mode (Ge solid state 7elts).
#%Ref/notes:  Mineralogical Research Company, San Jose, CA-USA. XRD confirmed. Transmission data were used to correct for overabsorption effects.
#%Temp: Room temp (28 degC)
#%Time&date: 9:06 PM 03/14/2007
#%Provider: Matthew A. Marcus, Sirine Fakra.
#%============================================================
7.0106674E+3 1.7440343E-3
7.0156673E+3 1.5604343E-3
7.0206671E+3 2.2223019E-3
7.0256670E+3 2.0640736E-3
7.0306669E+3 1.7998030E-3
7.0356668E+3 2.2090425E-3
7.0406666E+3 2.4598145E-3
7.0456665E+3 2.2936149E-3
7.0506664E+3 2.5217921E-3
7.0556663E+3 3.0561557E-3
7.0606661E+3 2.8751621E-3
7.0656660E+3 3.2776349E-3
7.0706659E+3 3.5133262E-3
7.0756658E+3 3.9684632E-3
7.0806656E+3 4.7655952E-3
7.0856655E+3 5.7720861E-3
7.0906654E+3 6.5207721E-3
7.0956653E+3 8.5073030E-3
7.0961653E+3 8.3084097E-3
7.0966652E+3 8.6403559E-3
7.0971652E+3 8.7911718E-3
7.0976652E+3 9.0190438E-3
7.0981652E+3 9.4268292E-3
7.0986652E+3 9.0700101E-3
7.0991652E+3 9.2726190E-3
7.0996652E+3 9.5869929E-3
7.1001652E+3 9.5493147E-3
7.1006651E+3 1.0201032E-2
7.1011651E+3 1.0635104E-2
7.1016651E+3 1.0636957E-2
7.1021651E+3 1.0732271E-2
7.1026651E+3 1.1258108E-2
7.1031651E+3 1.1780822E-2
7.1036651E+3 1.2026375E-2
7.1041651E+3 1.3069568E-2
7.1046650E+3 1.3311535E-2
7.1051650E+3 1.3682224E-2
7.1056650E+3 1.3919797E-2
7.1061650E+3 1.4524958E-2
7.1066650E+3 1.5432598E-2
7.1071650E+3 1.6302076E-2
7.1076650E+3 1.7021374E-2
7.1081650E+3 1.7738052E-2
7.1086649E+3 1.8481687E-2
7.1091649E+3 2.0235948E-2
7.1096649E+3 2.1439120E-2
7.1101649E+3 2.3689868E-2
7.1106649E+3 2.6941202E-2
7.1111649E+3 3.1891780E-2
7.1116649E+3 3.9120945E-2
7.1121649E+3 4.8108012E-2
7.1126648E+3 5.6938879E-2
7.1131648E+3 6.2717231E-2
7.1136648E+3 6.9785069E-2
7.1141648E+3 7.0508684E-2
7.1146648E+3 5.8769919E-2
7.1151648E+3 4.9683636E-2
7.1156648E+3 4.8577330E-2
7.1161648E+3 5.0215836E-2
7.1166648E+3 5.4245151E-2
7.1171647E+3 6.2914252E-2
7.1176647E+3 7.5474571E-2
7.1181647E+3 8.8211514E-2
7.1186647E+3 1.0581899E-1
7.1191647E+3 1.2743151E-1
7.1196647E+3 1.5561437E-1
7.1201647E+3 1.9709796E-1
7.1206647E+3 2.4331159E-1
7.1211646E+3 2.8750193E-1
7.1216646E+3 3.3167056E-1
7.1221646E+3 3.9345669E-1
7.1226646E+3 4.5376532E-1
7.1231646E+3 5.3820989E-1
7.1236646E+3 6.3103153E-1
7.1241646E+3 7.0559451E-1
7.1246646E+3 7.6666096E-1
7.1251645E+3 8.3247524E-1
7.1256645E+3 9.0175928E-1
7.1261645E+3 9.5685435E-1
7.1266645E+3 1.0326361E+0
7.1271645E+3 1.1068149E+0
7.1276645E+3 1.1632008E+0
7.1281645E+3 1.2183238E+0
7.1286645E+3 1.2585725E+0
7.1291644E+3 1.2780229E+0
7.1296644E+3 1.2747786E+0
7.1301644E+3 1.2719766E+0
7.1306644E+3 1.2775197E+0
7.1311644E+3 1.2906635E+0
7.1316644E+3 1.3111400E+0
7.1321644E+3 1.3071292E+0
7.1326644E+3 1.2930044E+0
7.1331643E+3 1.2805215E+0
7.1336643E+3 1.2679439E+0
7.1341643E+3 1.2638814E+0
7.1346643E+3 1.2532026E+0
7.1351643E+3 1.2431545E+0
7.1356643E+3 1.2280364E+0
7.1361643E+3 1.2140064E+0
7.1366643E+3 1.2048419E+0
7.1371642E+3 1.1953695E+0
7.1376642E+3 1.1806854E+0
7.1381642E+3 1.1659056E+0
7.1386642E+3 1.1461069E+0
7.1391642E+3 1.1316229E+0
7.1396642E+3 1.1191693E+0
7.1401642E+3 1.1078466E+0
7.1406642E+3 1.0993475E+0
7.1416641E+3 1.0842094E+0
7.1426641E+3 1.0752883E+0
7.1436641E+3 1.0732707E+0
7.1446640E+3 1.0763706E+0
7.1456640E+3 1.0838757E+0
7.1466640E+3 1.0870862E+0
7.1476640E+3 1.0658982E+0
7.1486639E+3 1.0382656E+0
7.1496639E+3 1.0053857E+0
7.1506639E+3 9.7403909E-1
7.1516639E+3 9.4524183E-1
7.1526638E+3 9.2006032E-1
7.1536638E+3 8.9763815E-1
7.1546638E+3 8.8587615E-1
7.1556638E+3 8.7527481E-1
7.1566637E+3 8.5690880E-1
7.1576637E+3 8.4901966E-1
7.1586637E+3 8.3491663E-1
7.1596637E+3 8.2721160E-1
7.1606636E+3 8.2667043E-1
7.1616636E+3 8.3033415E-1
7.1626636E+3 8.4237844E-1
7.1636636E+3 8.5898749E-1
7.1646635E+3 8.7325560E-1
7.1656635E+3 8.9166452E-1
7.1666635E+3 9.0851166E-1
7.1676635E+3 9.1989220E-1
7.1686634E+3 9.2632553E-1
7.1696634E+3 9.4005192E-1
7.1706634E+3 9.5062134E-1
7.1716634E+3 9.5847078E-1
7.1726633E+3 9.6842832E-1
7.1736633E+3 9.8173098E-1
7.1746633E+3 9.9190430E-1
7.1756633E+3 1.0018837E+0
7.1766632E+3 1.0091774E+0
7.1776632E+3 1.0139216E+0
7.1786632E+3 1.0221784E+0
7.1796632E+3 1.0269939E+0
7.1806631E+3 1.0379098E+0
7.1816631E+3 1.0390181E+0
7.1826631E+3 1.0429817E+0
7.1836631E+3 1.0499079E+0
7.1846630E+3 1.0519514E+0
7.1856630E+3 1.0579581E+0
7.1866630E+3 1.0612642E+0
7.1876630E+3 1.0629061E+0
7.1886629E+3 1.0658764E+0
7.1896629E+3 1.0612793E+0
7.1906629E+3 1.0595661E+0
7.1916629E+3 1.0551125E+0
7.1926628E+3 1.0465869E+0
7.1936628E+3 1.0411280E+0
7.1946628E+3 1.0357271E+0
7.1956628E+3 1.0278777E+0
7.1966627E+3 1.0258028E+0
7.1976627E+3 1.0206095E+0
7.1986627E+3 1.0182895E+0
7.1996627E+3 1.0080090E+0
7.2006626E+3 1.0066363E+0
7.2016626E+3 9.9784168E-1
7.2026626E+3 9.9295901E-1
7.2036626E+3 9.8533937E-1
7.2046625E+3 9.8700168E-1
7.2056625E+3 9.8293305E-1
7.2066625E+3 9.8309114E-1
7.2076625E+3 9.8574081E-1
7.2086624E+3 9.8352738E-1
7.2096624E+3 9.8045444E-1
7.2106624E+3 9.8287512E-1
7.2127040E+3 9.7974074E-1
7.2147456E+3 9.8443881E-1
7.2167872E+3 9.8320259E-1
7.2188288E+3 9.8661782E-1
7.2208705E+3 9.9074168E-1
7.2229121E+3 9.9765679E-1
7.2249537E+3 9.9531978E-1
7.2269953E+3 9.9598613E-1
7.2290369E+3 9.9833799E-1
7.2310785E+3 9.9393512E-1
7.2331202E+3 9.8864274E-1
7.2351618E+3 9.8776843E-1
7.2372034E+3 9.7811903E-1
7.2392450E+3 9.7486364E-1
7.2412866E+3 9.7117140E-1
7.2433282E+3 9.7300056E-1
7.2453698E+3 9.7626560E-1
7.2474115E+3 9.8050126E-1
7.2494531E+3 9.8076118E-1
7.2514947E+3 9.8841272E-1
7.2535363E+3 9.9220395E-1
7.2555779E+3 9.9682303E-1
7.2576195E+3 1.0041728E+0
7.2596611E+3 1.0084714E+0
7.2601611E+3 1.0052836E+0
7.2606611E+3 1.0040205E+0
7.2611611E+3 1.0087726E+0
7.2616611E+3 1.0092947E+0
7.2621611E+3 1.0086219E+0
7.2626611E+3 1.0118260E+0
7.2631611E+3 1.0069336E+0
7.2636610E+3 1.0052881E+0
7.2641610E+3 1.0161871E+0
7.2646610E+3 1.0162111E+0
7.2651610E+3 1.0154628E+0
7.2656610E+3 1.0164474E+0
7.2661610E+3 1.0124268E+0
7.2666610E+3 1.0112639E+0
7.2671610E+3 1.0177796E+0
7.2676609E+3 1.0149893E+0
7.2681609E+3 1.0156346E+0
7.2686609E+3 1.0183486E+0
7.2691609E+3 1.0176856E+0
7.2696609E+3 1.0158448E+0
7.2746608E+3 1.0241407E+0
7.2796606E+3 1.0239322E+0
7.2846605E+3 1.0220180E+0
7.2896604E+3 1.0140614E+0
7.2946603E+3 1.0080252E+0
7.2996601E+3 1.0019463E+0
7.3046600E+3 1.0059908E+0
7.3096599E+3 1.0014112E+0
7.3146597E+3 9.9787208E-1
7.3196596E+3 9.9468114E-1
7.3246595E+3 9.9631275E-1
7.3296594E+3 9.9733589E-1
7.3346592E+3 1.0026455E+0
7.3396591E+3 1.0013340E+0
7.3446590E+3 1.0007866E+0
7.3496588E+3 9.9764715E-1
7.3546587E+3 9.9375202E-1
7.3596586E+3 9.8750028E-1
7.3646585E+3 9.9282791E-1
7.3696583E+3 9.9152415E-1
7.3746582E+3 9.9720133E-1
7.3796581E+3 1.0008086E+0
7.3846579E+3 1.0033494E+0
7.3896578E+3 1.0041185E+0
7.3946577E+3 1.0076034E+0
7.3996575E+3 1.0070501E+0
7.4046574E+3 1.0059205E+0
7.4096573E+3 1.0048599E+0
