#%Name: Richterite ITFA component 1
#%Empirical formula: Na2CaMg3Fe2+2(Si8O22)(OH)2 / Webmineral
#%Mineral group: amphibole, Inosilicate  
#%Xtal system: Monoclinic  
#%Edge: K
#%Sample prep: powder on kapton tape
#%Beamline: ALS 10.3.2, HxV slits = 250x30 um
#%Det:  I0=N2, Fluorescence mode (Ge solid state 7elts)
#%Ref/notes:  Mineralogical Research Company, San Jose, CA-USA. XRD confirmed.
#%Temp: Room temp (28C)
#%Time&date: 4:43 PM 2/24/2007
#%Provider: Sirine Fakra, Matthew A. Marcus.
#%============================================================
7.0157181E+3 2.6127686E-3
7.0207181E+3 1.7867194E-3
7.0257181E+3 7.1812191E-4
7.0307180E+3 -8.8059482E-4
7.0357180E+3 3.4058046E-3
7.0407179E+3 4.3911684E-4
7.0457179E+3 3.3644622E-3
7.0507178E+3 5.4139549E-3
7.0557178E+3 1.9722360E-3
7.0607177E+3 1.7495842E-4
7.0657177E+3 1.2081381E-3
7.0707176E+3 9.5123060E-4
7.0757176E+3 2.0015296E-3
7.0807175E+3 4.1915418E-3
7.0857175E+3 6.0468749E-3
7.0907174E+3 2.9250617E-3
7.0957174E+3 5.1090105E-3
7.0962174E+3 4.0184958E-3
7.0967174E+3 6.5026481E-3
7.0972174E+3 3.8872770E-3
7.0977174E+3 6.3233975E-3
7.0982174E+3 5.8202074E-3
7.0987174E+3 6.6139691E-3
7.0992174E+3 5.3453122E-3
7.0997173E+3 3.7347632E-3
7.1002173E+3 4.4821806E-3
7.1007173E+3 5.0260698E-3
7.1012173E+3 6.0514575E-3
7.1017173E+3 7.7371685E-3
7.1022173E+3 8.6326113E-3
7.1027173E+3 4.2733034E-3
7.1032173E+3 7.0425103E-3
7.1037173E+3 8.6960804E-3
7.1042173E+3 8.6657301E-3
7.1047173E+3 9.1981451E-3
7.1052173E+3 9.6338047E-3
7.1057173E+3 9.3049337E-3
7.1062173E+3 9.0289919E-3
7.1067173E+3 1.2474130E-2
7.1072173E+3 1.0357084E-2
7.1077173E+3 9.5855536E-3
7.1082173E+3 1.3431787E-2
7.1087173E+3 9.9217333E-3
7.1092173E+3 1.0795573E-2
7.1097173E+3 1.1889622E-2
7.1102172E+3 1.3669915E-2
7.1107172E+3 1.5425049E-2
7.1112172E+3 2.1718504E-2
7.1117172E+3 1.9902438E-2
7.1122172E+3 2.4392635E-2
7.1127172E+3 3.4959475E-2
7.1132172E+3 4.7964011E-2
7.1137172E+3 5.2597759E-2
7.1142172E+3 5.6021833E-2
7.1147172E+3 4.9277887E-2
7.1152172E+3 4.2134604E-2
7.1157172E+3 3.2494335E-2
7.1162172E+3 2.9492341E-2
7.1167172E+3 3.3748151E-2
7.1172172E+3 3.5655622E-2
7.1177172E+3 3.7987464E-2
7.1182172E+3 3.9657062E-2
7.1187172E+3 4.2076740E-2
7.1192172E+3 4.9091021E-2
7.1197172E+3 5.8165270E-2
7.1202172E+3 7.0688366E-2
7.1207171E+3 8.1912295E-2
7.1212171E+3 9.6191184E-2
7.1217171E+3 1.1046720E-1
7.1222171E+3 1.3831946E-1
7.1227171E+3 1.7451872E-1
7.1232171E+3 2.4595207E-1
7.1237171E+3 3.1702732E-1
7.1242171E+3 4.0989062E-1
7.1247171E+3 4.7508072E-1
7.1252171E+3 5.2863443E-1
7.1257171E+3 5.8306888E-1
7.1262171E+3 6.3457841E-1
7.1267171E+3 7.2898596E-1
7.1272171E+3 8.5703224E-1
7.1277171E+3 1.0225232E+0
7.1282171E+3 1.2112532E+0
7.1287171E+3 1.3314855E+0
7.1292171E+3 1.4119484E+0
7.1297171E+3 1.4492566E+0
7.1302171E+3 1.4664399E+0
7.1307171E+3 1.5262245E+0
7.1312170E+3 1.5569020E+0
7.1317170E+3 1.5850022E+0
7.1322170E+3 1.5618018E+0
7.1327170E+3 1.5142317E+0
7.1332170E+3 1.4517199E+0
7.1337170E+3 1.4091870E+0
7.1342170E+3 1.3768697E+0
7.1347170E+3 1.3567868E+0
7.1352170E+3 1.3344138E+0
7.1357170E+3 1.3198577E+0
7.1362170E+3 1.3292565E+0
7.1367170E+3 1.3420166E+0
7.1372170E+3 1.3411727E+0
7.1377170E+3 1.2984578E+0
7.1382170E+3 1.2996393E+0
7.1387170E+3 1.2864333E+0
7.1392170E+3 1.2548749E+0
7.1397170E+3 1.2424003E+0
7.1402170E+3 1.2297418E+0
7.1407170E+3 1.2283680E+0
7.1417169E+3 1.2261657E+0
7.1427169E+3 1.2093860E+0
7.1437169E+3 1.1822916E+0
7.1447169E+3 1.1644734E+0
7.1457169E+3 1.1595963E+0
7.1467169E+3 1.1277755E+0
7.1477169E+3 1.0954277E+0
7.1487169E+3 1.0573947E+0
7.1497169E+3 1.0072104E+0
7.1507169E+3 9.5164593E-1
7.1517168E+3 9.1675111E-1
7.1527168E+3 8.7012483E-1
7.1537168E+3 8.3990849E-1
7.1547168E+3 8.1782047E-1
7.1557168E+3 8.0668818E-1
7.1567168E+3 7.8021660E-1
7.1577168E+3 7.6459060E-1
7.1587168E+3 7.5311613E-1
7.1597168E+3 7.4481642E-1
7.1607168E+3 7.4006091E-1
7.1617168E+3 7.4725237E-1
7.1627167E+3 7.4253327E-1
7.1637167E+3 7.5286149E-1
7.1647167E+3 7.7095839E-1
7.1657167E+3 7.9202329E-1
7.1667167E+3 8.0690039E-1
7.1677167E+3 8.2841225E-1
7.1687167E+3 8.4660391E-1
7.1697167E+3 8.6144625E-1
7.1707167E+3 8.7118953E-1
7.1717167E+3 9.0081128E-1
7.1727166E+3 9.2463393E-1
7.1737166E+3 9.6239390E-1
7.1747166E+3 9.9927333E-1
7.1757166E+3 1.0232108E+0
7.1767166E+3 1.0405880E+0
7.1777166E+3 1.0557952E+0
7.1787166E+3 1.0685107E+0
7.1797166E+3 1.0702584E+0
7.1807166E+3 1.0786520E+0
7.1817166E+3 1.0942729E+0
7.1827165E+3 1.1010124E+0
7.1837165E+3 1.1253549E+0
7.1847165E+3 1.1270872E+0
7.1857165E+3 1.1255120E+0
7.1867165E+3 1.1358194E+0
7.1877165E+3 1.1317025E+0
7.1887165E+3 1.1261959E+0
7.1897165E+3 1.1190608E+0
7.1907165E+3 1.1075829E+0
7.1917165E+3 1.0928665E+0
7.1927165E+3 1.0914853E+0
7.1937164E+3 1.0714039E+0
7.1947164E+3 1.0580672E+0
7.1957164E+3 1.0402437E+0
7.1967164E+3 1.0416307E+0
7.1977164E+3 1.0246618E+0
7.1987164E+3 1.0194602E+0
7.1997164E+3 1.0031859E+0
7.2007164E+3 9.8491773E-1
7.2017164E+3 9.7865520E-1
7.2027164E+3 9.5879910E-1
7.2037163E+3 9.5026421E-1
7.2047163E+3 9.5144360E-1
7.2057163E+3 9.5298417E-1
7.2067163E+3 9.5622260E-1
7.2077163E+3 9.5316380E-1
7.2087163E+3 9.5492552E-1
7.2097163E+3 9.4966292E-1
7.2107163E+3 9.4454603E-1
7.2127579E+3 9.5526346E-1
7.2147996E+3 9.6046871E-1
7.2168412E+3 9.7754569E-1
7.2188829E+3 9.9343168E-1
7.2209245E+3 1.0022383E+0
7.2229662E+3 1.0061882E+0
7.2250078E+3 1.0010773E+0
7.2270495E+3 1.0036941E+0
7.2290911E+3 9.9636904E-1
7.2311327E+3 9.8462855E-1
7.2331744E+3 9.6703143E-1
7.2352160E+3 9.5936206E-1
7.2372577E+3 9.4954125E-1
7.2392993E+3 9.4537666E-1
7.2413410E+3 9.3910309E-1
7.2433826E+3 9.3757015E-1
7.2454243E+3 9.4466653E-1
7.2474659E+3 9.3484900E-1
7.2495076E+3 9.4505339E-1
7.2515492E+3 9.5745272E-1
7.2535909E+3 9.6894496E-1
7.2556325E+3 9.7819565E-1
7.2576742E+3 9.9239523E-1
7.2597158E+3 9.8875635E-1
7.2602158E+3 9.8483079E-1
7.2607158E+3 9.9838688E-1
7.2612158E+3 1.0077954E+0
7.2617158E+3 1.0087856E+0
7.2622158E+3 1.0143731E+0
7.2627158E+3 1.0262257E+0
7.2632158E+3 1.0080947E+0
7.2637158E+3 1.0144689E+0
7.2642158E+3 1.0161861E+0
7.2647157E+3 1.0219859E+0
7.2652157E+3 1.0268433E+0
7.2657157E+3 1.0236081E+0
7.2662157E+3 1.0288083E+0
7.2667157E+3 1.0255056E+0
7.2672157E+3 1.0305645E+0
7.2677157E+3 1.0287486E+0
7.2682157E+3 1.0359456E+0
7.2687157E+3 1.0344021E+0
7.2692157E+3 1.0320888E+0
7.2697157E+3 1.0345404E+0
7.2747157E+3 1.0473152E+0
7.2797156E+3 1.0441263E+0
7.2847156E+3 1.0307644E+0
7.2897155E+3 1.0028008E+0
7.2947155E+3 9.8220709E-1
7.2997154E+3 9.7636886E-1
7.3047154E+3 9.6280572E-1
7.3097153E+3 9.6249311E-1
7.3147153E+3 9.6881202E-1
7.3197152E+3 9.8531100E-1
7.3247152E+3 9.9978459E-1
7.3297151E+3 1.0030224E+0
7.3347151E+3 1.0088550E+0
7.3397150E+3 1.0020088E+0
7.3447150E+3 9.8577591E-1
7.3497149E+3 9.8869154E-1
7.3547149E+3 9.9349835E-1
7.3597148E+3 9.9778709E-1
7.3647148E+3 9.9192738E-1
7.3697147E+3 9.9110787E-1
7.3747147E+3 9.9471805E-1
7.3797146E+3 9.9519784E-1
7.3847146E+3 1.0124022E+0
7.3897145E+3 1.0154683E+0
7.3947145E+3 1.0151659E+0
7.3997144E+3 1.0142718E+0
7.4047144E+3 1.0066500E+0
7.4097143E+3 1.0011723E+0
