#%Name: Richterite ITFA component 3
#%Empirical formula: Na2CaMg3Fe2+2(Si8O22)(OH)2 / Webmineral
#%Mineral group: amphibole, Inosilicate  
#%Xtal system: Monoclinic  
#%Edge: K
#%Sample prep: powder on kapton tape
#%Beamline: ALS 10.3.2, HxV slits = 250x30 um
#%Det:  I0=N2, Fluorescence mode (Ge solid state 7elts)
#%Ref/notes:  Mineralogical Research Company, San Jose, CA-USA. XRD confirmed.
#%Temp: Room temp (28C)
#%Time&date: 4:43 PM 2/24/2007
#%Provider: Sirine Fakra, Matthew A. Marcus.
#%============================================================
7.0157181E+3 -2.7473466E-4
7.0207181E+3 3.6525284E-3
7.0257181E+3 2.1978868E-3
7.0307180E+3 1.6173992E-3
7.0357180E+3 5.5026750E-3
7.0407179E+3 1.8301850E-4
7.0457179E+3 2.8771618E-3
7.0507178E+3 3.6222174E-4
7.0557178E+3 3.8847258E-3
7.0607177E+3 2.9688465E-3
7.0657177E+3 4.4584151E-3
7.0707176E+3 5.5182921E-3
7.0757176E+3 1.6775059E-3
7.0807175E+3 3.4078418E-3
7.0857175E+3 5.5765841E-3
7.0907174E+3 9.5027403E-3
7.0957174E+3 1.1190905E-2
7.0962174E+3 4.9714628E-3
7.0967174E+3 7.2108964E-3
7.0972174E+3 7.3032880E-3
7.0977174E+3 6.6080257E-3
7.0982174E+3 7.4399117E-3
7.0987174E+3 7.9331921E-3
7.0992174E+3 7.2570973E-3
7.0997173E+3 4.7664437E-3
7.1002173E+3 9.4225873E-3
7.1007173E+3 1.0091998E-2
7.1012173E+3 1.1777575E-2
7.1017173E+3 7.9296400E-3
7.1022173E+3 9.3296237E-3
7.1027173E+3 9.0846835E-3
7.1032173E+3 1.2579798E-2
7.1037173E+3 1.1552765E-2
7.1042173E+3 1.1816891E-2
7.1047173E+3 8.7592352E-3
7.1052173E+3 1.4162048E-2
7.1057173E+3 1.4267563E-2
7.1062173E+3 9.2680294E-3
7.1067173E+3 1.2991675E-2
7.1072173E+3 1.9283412E-2
7.1077173E+3 1.8253144E-2
7.1082173E+3 1.7295551E-2
7.1087173E+3 1.7768713E-2
7.1092173E+3 1.8608881E-2
7.1097173E+3 1.6908454E-2
7.1102172E+3 2.0080942E-2
7.1107172E+3 2.3852602E-2
7.1112172E+3 2.9366684E-2
7.1117172E+3 3.3825220E-2
7.1122172E+3 4.7639137E-2
7.1127172E+3 5.6267290E-2
7.1132172E+3 6.4875810E-2
7.1137172E+3 7.6620246E-2
7.1142172E+3 7.6070297E-2
7.1147172E+3 6.5888493E-2
7.1152172E+3 4.6906384E-2
7.1157172E+3 4.1664950E-2
7.1162172E+3 4.6841926E-2
7.1167172E+3 4.6868168E-2
7.1172172E+3 4.6292050E-2
7.1177172E+3 5.0369629E-2
7.1182172E+3 5.6496759E-2
7.1187172E+3 6.5409466E-2
7.1192172E+3 7.3212185E-2
7.1197172E+3 8.5454522E-2
7.1202172E+3 1.0893222E-1
7.1207171E+3 1.3424472E-1
7.1212171E+3 1.6894030E-1
7.1217171E+3 2.1888669E-1
7.1222171E+3 3.0232131E-1
7.1227171E+3 4.0723537E-1
7.1232171E+3 4.9278954E-1
7.1237171E+3 5.4783868E-1
7.1242171E+3 5.7821113E-1
7.1247171E+3 6.1871653E-1
7.1252171E+3 6.9981712E-1
7.1257171E+3 8.5336365E-1
7.1262171E+3 1.0207406E+0
7.1267171E+3 1.1523209E+0
7.1272171E+3 1.2237257E+0
7.1277171E+3 1.1952266E+0
7.1282171E+3 1.1788083E+0
7.1287171E+3 1.1865891E+0
7.1292171E+3 1.2001843E+0
7.1297171E+3 1.1957233E+0
7.1302171E+3 1.1938488E+0
7.1307171E+3 1.2156319E+0
7.1312170E+3 1.2805020E+0
7.1317170E+3 1.3648683E+0
7.1322170E+3 1.4463691E+0
7.1327170E+3 1.5287615E+0
7.1332170E+3 1.5883456E+0
7.1337170E+3 1.6281603E+0
7.1342170E+3 1.6444051E+0
7.1347170E+3 1.6113533E+0
7.1352170E+3 1.5365869E+0
7.1357170E+3 1.4554583E+0
7.1362170E+3 1.3806063E+0
7.1367170E+3 1.3089711E+0
7.1372170E+3 1.2509112E+0
7.1377170E+3 1.1866152E+0
7.1382170E+3 1.1391098E+0
7.1387170E+3 1.1038175E+0
7.1392170E+3 1.0775969E+0
7.1397170E+3 1.0537294E+0
7.1402170E+3 1.0551544E+0
7.1407170E+3 1.0376460E+0
7.1417169E+3 1.0157330E+0
7.1427169E+3 1.0149233E+0
7.1437169E+3 1.0164117E+0
7.1447169E+3 1.0381051E+0
7.1457169E+3 1.0506426E+0
7.1467169E+3 1.0598148E+0
7.1477169E+3 1.0522504E+0
7.1487169E+3 1.0439090E+0
7.1497169E+3 1.0279679E+0
7.1507169E+3 1.0198361E+0
7.1517168E+3 9.9522970E-1
7.1527168E+3 9.7046277E-1
7.1537168E+3 9.3710711E-1
7.1547168E+3 9.1952490E-1
7.1557168E+3 8.9412725E-1
7.1567168E+3 8.6396701E-1
7.1577168E+3 8.4820570E-1
7.1587168E+3 8.3844475E-1
7.1597168E+3 8.2909109E-1
7.1607168E+3 8.2671995E-1
7.1617168E+3 8.3129118E-1
7.1627167E+3 8.4231700E-1
7.1637167E+3 8.4741860E-1
7.1647167E+3 8.6098623E-1
7.1657167E+3 8.7933691E-1
7.1667167E+3 8.9753227E-1
7.1677167E+3 9.1972561E-1
7.1687167E+3 9.3739198E-1
7.1697167E+3 9.5153284E-1
7.1707167E+3 9.5894014E-1
7.1717167E+3 9.6452182E-1
7.1727166E+3 9.4894132E-1
7.1737166E+3 9.5033710E-1
7.1747166E+3 9.3416813E-1
7.1757166E+3 9.4884974E-1
7.1767166E+3 9.3778226E-1
7.1777166E+3 9.5843446E-1
7.1787166E+3 9.7186391E-1
7.1797166E+3 9.7224023E-1
7.1807166E+3 9.8717963E-1
7.1817166E+3 9.8953479E-1
7.1827165E+3 9.9019320E-1
7.1837165E+3 9.8653579E-1
7.1847165E+3 9.9905473E-1
7.1857165E+3 1.0020399E+0
7.1867165E+3 1.0076299E+0
7.1877165E+3 1.0197108E+0
7.1887165E+3 1.0227415E+0
7.1897165E+3 1.0344106E+0
7.1907165E+3 1.0423542E+0
7.1917165E+3 1.0482796E+0
7.1927165E+3 1.0488569E+0
7.1937164E+3 1.0463923E+0
7.1947164E+3 1.0493387E+0
7.1957164E+3 1.0445097E+0
7.1967164E+3 1.0425470E+0
7.1977164E+3 1.0486278E+0
7.1987164E+3 1.0359158E+0
7.1997164E+3 1.0239017E+0
7.2007164E+3 1.0295173E+0
7.2017164E+3 1.0189105E+0
7.2027164E+3 1.0192689E+0
7.2037163E+3 1.0112708E+0
7.2047163E+3 1.0055558E+0
7.2057163E+3 9.9993754E-1
7.2067163E+3 9.9030581E-1
7.2077163E+3 9.8733670E-1
7.2087163E+3 9.8429045E-1
7.2097163E+3 9.8323214E-1
7.2107163E+3 9.8440500E-1
7.2127579E+3 9.8821374E-1
7.2147996E+3 9.8770512E-1
7.2168412E+3 9.8511291E-1
7.2188829E+3 9.7573245E-1
7.2209245E+3 9.7473756E-1
7.2229662E+3 9.7379194E-1
7.2250078E+3 9.7113625E-1
7.2270495E+3 9.6295353E-1
7.2290911E+3 9.6021244E-1
7.2311327E+3 9.5933325E-1
7.2331744E+3 9.5438503E-1
7.2352160E+3 9.5256179E-1
7.2372577E+3 9.5718870E-1
7.2392993E+3 9.5515685E-1
7.2413410E+3 9.7250328E-1
7.2433826E+3 9.7710650E-1
7.2454243E+3 9.8500768E-1
7.2474659E+3 9.9233805E-1
7.2495076E+3 1.0068784E+0
7.2515492E+3 1.0091393E+0
7.2535909E+3 1.0047852E+0
7.2556325E+3 1.0044488E+0
7.2576742E+3 1.0068819E+0
7.2597158E+3 1.0067966E+0
7.2602158E+3 1.0004555E+0
7.2607158E+3 1.0016381E+0
7.2612158E+3 1.0071619E+0
7.2617158E+3 1.0067981E+0
7.2622158E+3 1.0113271E+0
7.2627158E+3 9.9904081E-1
7.2632158E+3 9.9333791E-1
7.2637158E+3 9.9392019E-1
7.2642158E+3 9.9198858E-1
7.2647157E+3 1.0035262E+0
7.2652157E+3 1.0008722E+0
7.2657157E+3 9.9645559E-1
7.2662157E+3 9.9867973E-1
7.2667157E+3 9.9626916E-1
7.2672157E+3 9.9247093E-1
7.2677157E+3 9.9745290E-1
7.2682157E+3 9.8428752E-1
7.2687157E+3 9.9431422E-1
7.2692157E+3 9.9431923E-1
7.2697157E+3 9.8363947E-1
7.2747157E+3 9.7694306E-1
7.2797156E+3 9.9304487E-1
7.2847156E+3 9.9510947E-1
7.2897155E+3 1.0064688E+0
7.2947155E+3 1.0210786E+0
7.2997154E+3 1.0232877E+0
7.3047154E+3 1.0120013E+0
7.3097153E+3 9.9777940E-1
7.3147153E+3 9.9443118E-1
7.3197152E+3 9.8743422E-1
7.3247152E+3 9.8617850E-1
7.3297151E+3 9.8147824E-1
7.3347151E+3 9.9036481E-1
7.3397150E+3 9.8342102E-1
7.3447150E+3 9.8036408E-1
7.3497149E+3 9.9601685E-1
7.3547149E+3 9.9824403E-1
7.3597148E+3 9.9181420E-1
7.3647148E+3 9.9239073E-1
7.3697147E+3 9.9746330E-1
7.3747147E+3 9.9446698E-1
7.3797146E+3 1.0072545E+0
7.3847146E+3 1.0160223E+0
7.3897145E+3 1.0126708E+0
7.3947145E+3 1.0133825E+0
7.3997144E+3 1.0002223E+0
7.4047144E+3 9.9165165E-1
7.4097143E+3 1.0011377E+0
