#%Name: Troilite
#%Formula: FeS
#%Mineral class: sulfide 
#%Xtal system: Hexagonal    
#%Edge: K
#%Sample prep: powder on kapton tape
#%Beamline: ALS 10.3.2, HxV slits = 100x30 um
#%Det:  I0=N2, Fluorescence mode (Ge solid state 7elts)
#%Ref/notes:  from MRC, CA-USA. XRD confirmed
#%Temp: Room temp (28C)
#%Time&date: 10:57 PM 3/15/2007. Sirine C. Fakra, Matthew A. Marcus
#%============================================================
7.0146707E+3 1.5160724E-3
7.0196691E+3 1.9952166E-3
7.0246675E+3 1.7030405E-3
7.0296658E+3 2.0675168E-3
7.0346642E+3 2.2907834E-3
7.0396626E+3 3.2266479E-3
7.0446610E+3 2.6220122E-3
7.0496594E+3 2.7255040E-3
7.0546578E+3 2.2080126E-3
7.0596562E+3 3.3643779E-3
7.0646546E+3 3.8016616E-3
7.0696529E+3 4.1761292E-3
7.0746513E+3 4.3763842E-3
7.0796497E+3 5.2226100E-3
7.0846481E+3 6.8258769E-3
7.0896465E+3 6.7406286E-3
7.0946448E+3 8.7495406E-3
7.0951447E+3 9.5668680E-3
7.0956445E+3 1.0414888E-2
7.0961444E+3 1.0076642E-2
7.0966442E+3 1.0370608E-2
7.0971440E+3 1.0765845E-2
7.0976439E+3 1.0563394E-2
7.0981437E+3 1.1946086E-2
7.0986435E+3 1.0901383E-2
7.0991434E+3 1.1569592E-2
7.0996432E+3 1.2529280E-2
7.1001431E+3 1.3057043E-2
7.1006429E+3 1.3512211E-2
7.1011427E+3 1.3619073E-2
7.1016426E+3 1.3643090E-2
7.1021424E+3 1.4153788E-2
7.1026422E+3 1.5888431E-2
7.1031421E+3 1.5860500E-2
7.1036419E+3 1.6264316E-2
7.1041418E+3 1.7116332E-2
7.1046416E+3 1.7679243E-2
7.1051414E+3 1.9256372E-2
7.1056413E+3 1.9748550E-2
7.1061411E+3 2.1752400E-2
7.1066409E+3 2.2013011E-2
7.1071408E+3 2.3637299E-2
7.1076406E+3 2.5721506E-2
7.1081405E+3 2.7874366E-2
7.1086403E+3 3.0702927E-2
7.1091401E+3 3.4787751E-2
7.1096400E+3 4.0599299E-2
7.1101398E+3 5.0743068E-2
7.1106396E+3 6.6743362E-2
7.1111395E+3 8.7534305E-2
7.1116393E+3 1.0499882E-1
7.1121392E+3 1.1599809E-1
7.1126390E+3 1.2347314E-1
7.1131388E+3 1.2851567E-1
7.1136387E+3 1.3752230E-1
7.1141385E+3 1.5621821E-1
7.1146383E+3 1.8589048E-1
7.1151382E+3 2.2438575E-1
7.1156380E+3 2.7907196E-1
7.1161379E+3 3.5105641E-1
7.1166377E+3 4.2730659E-1
7.1171375E+3 5.0728206E-1
7.1176374E+3 5.7851829E-1
7.1181372E+3 6.5367811E-1
7.1186370E+3 7.2525408E-1
7.1191369E+3 7.7543481E-1
7.1196367E+3 8.1831058E-1
7.1201366E+3 8.4607132E-1
7.1206364E+3 8.6378861E-1
7.1211362E+3 8.7105733E-1
7.1216361E+3 8.7874215E-1
7.1221359E+3 8.8511886E-1
7.1226357E+3 8.9635628E-1
7.1231356E+3 9.0632136E-1
7.1236354E+3 9.2112034E-1
7.1241352E+3 9.3561119E-1
7.1246351E+3 9.4687425E-1
7.1251349E+3 9.5823838E-1
7.1256348E+3 9.6927595E-1
7.1261346E+3 9.8016900E-1
7.1266344E+3 9.9183930E-1
7.1271343E+3 1.0019319E+0
7.1276341E+3 1.0119318E+0
7.1281339E+3 1.0212985E+0
7.1286338E+3 1.0327084E+0
7.1291336E+3 1.0399809E+0
7.1296335E+3 1.0463013E+0
7.1301333E+3 1.0508736E+0
7.1306331E+3 1.0569000E+0
7.1311330E+3 1.0581696E+0
7.1316328E+3 1.0584641E+0
7.1321326E+3 1.0596451E+0
7.1326325E+3 1.0612033E+0
7.1331323E+3 1.0584204E+0
7.1336321E+3 1.0594422E+0
7.1341320E+3 1.0561193E+0
7.1346318E+3 1.0558882E+0
7.1351317E+3 1.0542525E+0
7.1356315E+3 1.0544950E+0
7.1361313E+3 1.0542461E+0
7.1366312E+3 1.0522848E+0
7.1371310E+3 1.0542658E+0
7.1376308E+3 1.0499823E+0
7.1381307E+3 1.0454816E+0
7.1386305E+3 1.0427704E+0
7.1391304E+3 1.0384821E+0
7.1396302E+3 1.0334994E+0
7.1406299E+3 1.0268445E+0
7.1416295E+3 1.0226925E+0
7.1426292E+3 1.0192726E+0
7.1436289E+3 1.0147751E+0
7.1446286E+3 1.0113119E+0
7.1456282E+3 1.0070941E+0
7.1466279E+3 1.0016127E+0
7.1476276E+3 9.9668042E-1
7.1486272E+3 9.8708936E-1
7.1496269E+3 9.7686828E-1
7.1506266E+3 9.6528231E-1
7.1516263E+3 9.5374683E-1
7.1526259E+3 9.4264938E-1
7.1536256E+3 9.3611219E-1
7.1546253E+3 9.2706670E-1
7.1556250E+3 9.2059324E-1
7.1566246E+3 9.1813333E-1
7.1576243E+3 9.1379209E-1
7.1586240E+3 9.1541409E-1
7.1596236E+3 9.1677308E-1
7.1606233E+3 9.1940689E-1
7.1616230E+3 9.2401816E-1
7.1626227E+3 9.3010819E-1
7.1636223E+3 9.3553321E-1
7.1646220E+3 9.4476206E-1
7.1656217E+3 9.5251023E-1
7.1666214E+3 9.6209105E-1
7.1676210E+3 9.7264826E-1
7.1686207E+3 9.8214565E-1
7.1696204E+3 9.9397962E-1
7.1706200E+3 1.0046304E+0
7.1716197E+3 1.0151066E+0
7.1726194E+3 1.0244032E+0
7.1736191E+3 1.0294308E+0
7.1746187E+3 1.0363634E+0
7.1756184E+3 1.0388192E+0
7.1766181E+3 1.0404155E+0
7.1776177E+3 1.0412726E+0
7.1786174E+3 1.0432911E+0
7.1796171E+3 1.0421294E+0
7.1806168E+3 1.0418986E+0
7.1816164E+3 1.0389650E+0
7.1826161E+3 1.0356041E+0
7.1836158E+3 1.0329056E+0
7.1846154E+3 1.0306576E+0
7.1856151E+3 1.0278149E+0
7.1866148E+3 1.0257723E+0
7.1876145E+3 1.0218587E+0
7.1886141E+3 1.0205152E+0
7.1896138E+3 1.0176153E+0
7.1906135E+3 1.0130313E+0
7.1916131E+3 1.0114796E+0
7.1926128E+3 1.0103146E+0
7.1936125E+3 1.0075186E+0
7.1946122E+3 1.0054285E+0
7.1956118E+3 1.0005034E+0
7.1966115E+3 9.9968600E-1
7.1976112E+3 9.9337018E-1
7.1986108E+3 9.9006988E-1
7.1996105E+3 9.8628250E-1
7.2006102E+3 9.8507177E-1
7.2016099E+3 9.8338746E-1
7.2026095E+3 9.7921900E-1
7.2036092E+3 9.7660963E-1
7.2046089E+3 9.7645053E-1
7.2056085E+3 9.7345256E-1
7.2066082E+3 9.7162976E-1
7.2076079E+3 9.7053790E-1
7.2086075E+3 9.7073187E-1
7.2096072E+3 9.7128647E-1
7.2116482E+3 9.7047309E-1
7.2136892E+3 9.7231098E-1
7.2157302E+3 9.7526975E-1
7.2177712E+3 9.7797628E-1
7.2198122E+3 9.8166480E-1
7.2218532E+3 9.8645851E-1
7.2238942E+3 9.9002431E-1
7.2259352E+3 9.9399438E-1
7.2279761E+3 9.9575276E-1
7.2300171E+3 1.0001684E+0
7.2320581E+3 1.0034230E+0
7.2340991E+3 1.0048810E+0
7.2361401E+3 1.0076248E+0
7.2381811E+3 1.0108199E+0
7.2402221E+3 1.0127812E+0
7.2422631E+3 1.0126933E+0
7.2443041E+3 1.0129316E+0
7.2463451E+3 1.0130181E+0
7.2483861E+3 1.0111011E+0
7.2504270E+3 1.0098969E+0
7.2524680E+3 1.0089718E+0
7.2545090E+3 1.0069952E+0
7.2565500E+3 1.0068997E+0
7.2585910E+3 1.0042283E+0
7.2590908E+3 1.0063732E+0
7.2595907E+3 1.0056041E+0
7.2600905E+3 1.0034517E+0
7.2605903E+3 1.0041687E+0
7.2610902E+3 1.0017062E+0
7.2615900E+3 1.0030810E+0
7.2620898E+3 1.0032035E+0
7.2625897E+3 1.0043148E+0
7.2630895E+3 1.0037729E+0
7.2635893E+3 9.9655162E-1
7.2640892E+3 9.9793165E-1
7.2645890E+3 1.0017262E+0
7.2650888E+3 1.0026619E+0
7.2655887E+3 1.0014981E+0
7.2660885E+3 1.0040490E+0
7.2665883E+3 1.0007685E+0
7.2670882E+3 1.0001744E+0
7.2675880E+3 9.9950497E-1
7.2680878E+3 1.0014806E+0
7.2685877E+3 1.0036030E+0
7.2735860E+3 1.0003576E+0
7.2785843E+3 1.0013902E+0
7.2835827E+3 1.0003362E+0
7.2885810E+3 9.9841827E-1
7.2935793E+3 9.9686410E-1
7.2985777E+3 9.9546295E-1
7.3035760E+3 9.9676564E-1
7.3085743E+3 9.9606167E-1
7.3135727E+3 9.9588095E-1
7.3185710E+3 9.9885797E-1
7.3235693E+3 9.9919275E-1
7.3285676E+3 1.0008789E+0
7.3335660E+3 1.0037491E+0
7.3385643E+3 1.0042266E+0
7.3435626E+3 1.0045929E+0
7.3485609E+3 1.0030651E+0
7.3535592E+3 1.0017835E+0
7.3585576E+3 1.0007335E+0
7.3635559E+3 9.9935224E-1
7.3685542E+3 9.9972897E-1
7.3735525E+3 9.9862654E-1
7.3785508E+3 9.9675040E-1
7.3835491E+3 9.9815933E-1
7.3885474E+3 9.9822316E-1
7.3935458E+3 9.9762474E-1
7.3985441E+3 9.9902657E-1
7.4035424E+3 9.9818631E-1
