#%Name: Nontronite NAu-2
#%formula: 
#%Mineral class: silicates
#%Xtal system: monoclinic
#%Edge: K
#%Sample prep: mounted on kapton tape
#%Beamline: ALS 10.3.2, HxV slits = 200x20 um
#%Det:  I0=N2, Fluorescence mode (Ge solid state 7elts)
#%Ref/notes:  from the Clay Minerals Society. XRD confirmed.average of several dat scans
#%Temp: Room temp (28 degC)
#%Time&date: 12:05 AM 12/15/2011. Matthew A. Marcus
#%============================================================
7.0152993E+3 1.5996611E-3
7.0202986E+3 1.7091620E-3
7.0252980E+3 1.7467308E-3
7.0302973E+3 1.9354344E-3
7.0352966E+3 2.0048508E-3
7.0402959E+3 2.1202716E-3
7.0452953E+3 2.2458969E-3
7.0502946E+3 2.3986974E-3
7.0552939E+3 2.6026481E-3
7.0602932E+3 2.9296292E-3
7.0652926E+3 3.3103277E-3
7.0702919E+3 3.5486443E-3
7.0752912E+3 4.1108448E-3
7.0802905E+3 4.6859434E-3
7.0852899E+3 5.3988748E-3
7.0902892E+3 6.2810250E-3
7.0952885E+3 7.6297452E-3
7.0955885E+3 7.6527125E-3
7.0958884E+3 7.7593980E-3
7.0961884E+3 7.8430528E-3
7.0964883E+3 7.9912550E-3
7.0967883E+3 8.1360134E-3
7.0970883E+3 8.1817470E-3
7.0973882E+3 8.3148329E-3
7.0976882E+3 8.4027330E-3
7.0979881E+3 8.6041026E-3
7.0982881E+3 8.6578893E-3
7.0985881E+3 8.8013801E-3
7.0988880E+3 8.9640777E-3
7.0991880E+3 8.9987010E-3
7.0994879E+3 9.1214604E-3
7.0997879E+3 9.2615704E-3
7.1000879E+3 9.3195378E-3
7.1003878E+3 9.5621084E-3
7.1006878E+3 9.7634952E-3
7.1009877E+3 9.8373509E-3
7.1012877E+3 1.0012150E-2
7.1015877E+3 1.0234825E-2
7.1018876E+3 1.0313058E-2
7.1021876E+3 1.0561328E-2
7.1024875E+3 1.0709144E-2
7.1027875E+3 1.0857768E-2
7.1030875E+3 1.0962285E-2
7.1033874E+3 1.1200806E-2
7.1036874E+3 1.1455168E-2
7.1039873E+3 1.1598144E-2
7.1042873E+3 1.1913783E-2
7.1045873E+3 1.2127954E-2
7.1048872E+3 1.2406820E-2
7.1051872E+3 1.2677668E-2
7.1054871E+3 1.2879208E-2
7.1057871E+3 1.3179624E-2
7.1060870E+3 1.3563670E-2
7.1063870E+3 1.3845891E-2
7.1066870E+3 1.4205249E-2
7.1069869E+3 1.4607701E-2
7.1072869E+3 1.4812789E-2
7.1075868E+3 1.5140208E-2
7.1078868E+3 1.5650686E-2
7.1081868E+3 1.6168865E-2
7.1084867E+3 1.6680491E-2
7.1087867E+3 1.7259302E-2
7.1090866E+3 1.7990171E-2
7.1093866E+3 1.8541630E-2
7.1096866E+3 1.9386931E-2
7.1099865E+3 2.0453673E-2
7.1102865E+3 2.1709410E-2
7.1105864E+3 2.3292663E-2
7.1108864E+3 2.5266365E-2
7.1111864E+3 2.7706776E-2
7.1114863E+3 3.0796304E-2
7.1117863E+3 3.5302880E-2
7.1120862E+3 4.1294972E-2
7.1123862E+3 4.7730788E-2
7.1126862E+3 5.2153401E-2
7.1129861E+3 5.3758829E-2
7.1132861E+3 5.3224791E-2
7.1135860E+3 5.3094243E-2
7.1138860E+3 5.3731152E-2
7.1141859E+3 5.3124211E-2
7.1144859E+3 5.1215151E-2
7.1147859E+3 4.8180107E-2
7.1150858E+3 4.5674203E-2
7.1153858E+3 4.4725073E-2
7.1156857E+3 4.4808272E-2
7.1159857E+3 4.5924211E-2
7.1162857E+3 4.7816163E-2
7.1165856E+3 5.0246102E-2
7.1168856E+3 5.3025593E-2
7.1171855E+3 5.6818846E-2
7.1174855E+3 6.1360397E-2
7.1177855E+3 6.6020895E-2
7.1180854E+3 7.1878465E-2
7.1183854E+3 7.8552459E-2
7.1186853E+3 8.6137144E-2
7.1189853E+3 9.6156156E-2
7.1192853E+3 1.0760698E-1
7.1195852E+3 1.2134278E-1
7.1198852E+3 1.3647452E-1
7.1201851E+3 1.5293875E-1
7.1204851E+3 1.7043977E-1
7.1207850E+3 1.8988594E-1
7.1210850E+3 2.1242087E-1
7.1213850E+3 2.3781133E-1
7.1216849E+3 2.6577753E-1
7.1219849E+3 2.9527355E-1
7.1222848E+3 3.2775511E-1
7.1225848E+3 3.6641538E-1
7.1228848E+3 4.0898004E-1
7.1231847E+3 4.5681154E-1
7.1234847E+3 5.0459637E-1
7.1237846E+3 5.5059499E-1
7.1240846E+3 5.9161613E-1
7.1243846E+3 6.3001966E-1
7.1246845E+3 6.6711475E-1
7.1249845E+3 7.0417862E-1
7.1252844E+3 7.4474536E-1
7.1255844E+3 7.8876230E-1
7.1258844E+3 8.4286003E-1
7.1261843E+3 9.0248207E-1
7.1264843E+3 9.6673272E-1
7.1267842E+3 1.0356922E+0
7.1270842E+3 1.1075235E+0
7.1273842E+3 1.1775411E+0
7.1276841E+3 1.2400651E+0
7.1279841E+3 1.2906928E+0
7.1282840E+3 1.3315870E+0
7.1285840E+3 1.3627999E+0
7.1288839E+3 1.3858994E+0
7.1291839E+3 1.4053144E+0
7.1294839E+3 1.4234662E+0
7.1297838E+3 1.4380645E+0
7.1300838E+3 1.4507221E+0
7.1303837E+3 1.4599953E+0
7.1306837E+3 1.4712730E+0
7.1309837E+3 1.4804125E+0
7.1312836E+3 1.4880062E+0
7.1315836E+3 1.4959526E+0
7.1318835E+3 1.5014064E+0
7.1321835E+3 1.5002633E+0
7.1324835E+3 1.4960816E+0
7.1327834E+3 1.4870536E+0
7.1330834E+3 1.4739074E+0
7.1333833E+3 1.4595413E+0
7.1336833E+3 1.4427479E+0
7.1339833E+3 1.4217593E+0
7.1342832E+3 1.4006860E+0
7.1345832E+3 1.3776769E+0
7.1348831E+3 1.3560513E+0
7.1351831E+3 1.3343172E+0
7.1354830E+3 1.3159832E+0
7.1357830E+3 1.2981334E+0
7.1360830E+3 1.2829052E+0
7.1363829E+3 1.2675827E+0
7.1366829E+3 1.2571489E+0
7.1369828E+3 1.2465366E+0
7.1372828E+3 1.2375967E+0
7.1375828E+3 1.2295682E+0
7.1378827E+3 1.2200781E+0
7.1381827E+3 1.2120440E+0
7.1384826E+3 1.2033023E+0
7.1387826E+3 1.1939291E+0
7.1390826E+3 1.1845613E+0
7.1393825E+3 1.1773270E+0
7.1396825E+3 1.1698150E+0
7.1399824E+3 1.1620917E+0
7.1402824E+3 1.1559895E+0
7.1412823E+3 1.1393646E+0
7.1422821E+3 1.1237850E+0
7.1432820E+3 1.1136177E+0
7.1442818E+3 1.1118473E+0
7.1452817E+3 1.1120765E+0
7.1462816E+3 1.1040441E+0
7.1472814E+3 1.0806714E+0
7.1482813E+3 1.0430511E+0
7.1492812E+3 9.9697704E-1
7.1502810E+3 9.5256254E-1
7.1512809E+3 9.1731428E-1
7.1522808E+3 8.8810532E-1
7.1532806E+3 8.6611264E-1
7.1542805E+3 8.4762505E-1
7.1552803E+3 8.3387105E-1
7.1562802E+3 8.2087654E-1
7.1572801E+3 8.1098265E-1
7.1582799E+3 8.0403641E-1
7.1592798E+3 7.9909517E-1
7.1602797E+3 7.9745029E-1
7.1612795E+3 7.9973450E-1
7.1622794E+3 8.0511674E-1
7.1632793E+3 8.1414734E-1
7.1642791E+3 8.2591395E-1
7.1652790E+3 8.4157742E-1
7.1662788E+3 8.5934199E-1
7.1672787E+3 8.7892624E-1
7.1682786E+3 8.9801472E-1
7.1692784E+3 9.1874091E-1
7.1702783E+3 9.4066533E-1
7.1712782E+3 9.6172916E-1
7.1722780E+3 9.8177436E-1
7.1732779E+3 1.0022527E+0
7.1742777E+3 1.0237438E+0
7.1752776E+3 1.0429011E+0
7.1762775E+3 1.0572535E+0
7.1772773E+3 1.0657997E+0
7.1782772E+3 1.0746845E+0
7.1792771E+3 1.0823226E+0
7.1802769E+3 1.0880858E+0
7.1812768E+3 1.0910193E+0
7.1822766E+3 1.0914130E+0
7.1832765E+3 1.0892102E+0
7.1842764E+3 1.0863719E+0
7.1852762E+3 1.0833149E+0
7.1862761E+3 1.0785194E+0
7.1872760E+3 1.0737404E+0
7.1882758E+3 1.0704272E+0
7.1892757E+3 1.0644746E+0
7.1902755E+3 1.0610975E+0
7.1912754E+3 1.0565459E+0
7.1922753E+3 1.0523430E+0
7.1932751E+3 1.0483913E+0
7.1942750E+3 1.0436481E+0
7.1952749E+3 1.0406376E+0
7.1962747E+3 1.0359098E+0
7.1972746E+3 1.0308470E+0
7.1982745E+3 1.0256222E+0
7.1992743E+3 1.0219708E+0
7.2002742E+3 1.0167021E+0
7.2012740E+3 1.0120980E+0
7.2022739E+3 1.0080174E+0
7.2032738E+3 1.0028140E+0
7.2042736E+3 9.9875578E-1
7.2052735E+3 9.9506016E-1
7.2062733E+3 9.9132216E-1
7.2072732E+3 9.8758224E-1
7.2082731E+3 9.8474606E-1
7.2092729E+3 9.7982410E-1
7.2102728E+3 9.7685778E-1
7.2122725E+3 9.7277013E-1
7.2142722E+3 9.7035557E-1
7.2162720E+3 9.7148398E-1
7.2182717E+3 9.7600621E-1
7.2202714E+3 9.8159434E-1
7.2222711E+3 9.8697319E-1
7.2242709E+3 9.8914060E-1
7.2262706E+3 9.8843224E-1
7.2282703E+3 9.8626289E-1
7.2302700E+3 9.8151944E-1
7.2322698E+3 9.7654225E-1
7.2342695E+3 9.7045492E-1
7.2362692E+3 9.6596790E-1
7.2382689E+3 9.6135263E-1
7.2402687E+3 9.5941342E-1
7.2422684E+3 9.6002807E-1
7.2442681E+3 9.6222198E-1
7.2462678E+3 9.6666782E-1
7.2482676E+3 9.7381718E-1
7.2502673E+3 9.8089003E-1
7.2522670E+3 9.8883074E-1
7.2542667E+3 9.9727426E-1
7.2562664E+3 1.0069888E+0
7.2565637E+3 1.0078415E+0
7.2568610E+3 1.0080672E+0
7.2571582E+3 1.0091473E+0
7.2574555E+3 1.0105606E+0
7.2577527E+3 1.0109931E+0
7.2580500E+3 1.0130490E+0
7.2583472E+3 1.0139605E+0
7.2586445E+3 1.0137598E+0
7.2589417E+3 1.0151609E+0
7.2592390E+3 1.0160966E+0
7.2595363E+3 1.0166903E+0
7.2598335E+3 1.0175190E+0
7.2601308E+3 1.0188492E+0
7.2604280E+3 1.0190802E+0
7.2607253E+3 1.0201698E+0
7.2610225E+3 1.0207472E+0
7.2613198E+3 1.0207536E+0
7.2616171E+3 1.0214344E+0
7.2619143E+3 1.0222560E+0
7.2622116E+3 1.0232056E+0
7.2625088E+3 1.0237926E+0
7.2628061E+3 1.0243640E+0
7.2631033E+3 1.0253584E+0
7.2634006E+3 1.0251043E+0
7.2636978E+3 1.0256335E+0
7.2639951E+3 1.0265711E+0
7.2642924E+3 1.0265450E+0
7.2645896E+3 1.0269726E+0
7.2648869E+3 1.0273484E+0
7.2651841E+3 1.0267150E+0
7.2654814E+3 1.0272499E+0
7.2657786E+3 1.0279744E+0
7.2660759E+3 1.0279210E+0
7.2663731E+3 1.0285579E+0
7.2666704E+3 1.0280900E+0
7.2669677E+3 1.0272494E+0
7.2672649E+3 1.0262913E+0
7.2702645E+3 1.0304686E+0
7.2732641E+3 1.0292128E+0
7.2762637E+3 1.0280554E+0
7.2792632E+3 1.0262623E+0
7.2822628E+3 1.0218413E+0
7.2852624E+3 1.0172121E+0
7.2882620E+3 1.0093843E+0
7.2912616E+3 1.0018047E+0
7.2942612E+3 9.9370651E-1
7.2972607E+3 9.8523351E-1
7.3002603E+3 9.7915330E-1
7.3032599E+3 9.7497223E-1
7.3062595E+3 9.7325762E-1
7.3092591E+3 9.7290379E-1
7.3122587E+3 9.7563608E-1
7.3152582E+3 9.7958058E-1
7.3182578E+3 9.8393973E-1
7.3212574E+3 9.8880683E-1
7.3242570E+3 9.9282561E-1
7.3272566E+3 9.9572080E-1
7.3302561E+3 9.9759226E-1
7.3332557E+3 9.9866496E-1
7.3362553E+3 9.9858047E-1
7.3392549E+3 9.9755973E-1
7.3422545E+3 9.9524980E-1
7.3452540E+3 9.9330169E-1
7.3482536E+3 9.9279593E-1
7.3512532E+3 9.9197240E-1
7.3542528E+3 9.9129927E-1
7.3572523E+3 9.8937116E-1
7.3602519E+3 9.8917271E-1
7.3632515E+3 9.8914732E-1
7.3662511E+3 9.8918096E-1
7.3692507E+3 9.8896765E-1
7.3722502E+3 9.9067482E-1
7.3752498E+3 9.9226598E-1
7.3782494E+3 9.9377479E-1
7.3812490E+3 9.9616999E-1
7.3842485E+3 9.9812178E-1
7.3872481E+3 1.0004512E+0
7.3902477E+3 1.0010129E+0
7.3932473E+3 1.0028100E+0
7.3962469E+3 1.0027317E+0
7.3992464E+3 1.0020291E+0
7.4022460E+3 1.0010285E+0
7.4052456E+3 9.9908736E-1
7.4082452E+3 9.9627556E-1

